Fz,FC3,FC5,F3,FC4,FCz,Cz,Time,t_rel,idx
12.955830279544518,-16.58922709852399,-34.633958555470166,21.485029286749665,-3.629028405413362,6.160378137622727,14.250976355490629,129.82,-1.9995619999896803,0
12.899285226574694,-16.515853488802726,-34.50583909423148,21.423055498187914,-3.658172893936162,6.0699475822297595,14.287577169978038,129.824,-1.9955619999896612,0
12.810954064407758,-16.73364918916233,-34.38605712777469,21.46395978583685,-3.9229514651971367,6.6574640550740884,14.110279876815504,129.828,-1.9915619999896705,0
12.460943274222737,-16.750516348030587,-33.706875532805434,21.275494290563383,-4.414041436161751,7.1304161068328025,14.004579645378879,129.832,-1.9875619999896799,0
11.853248559290332,-16.449906255184196,-32.44791980568762,20.8116055027371,-5.0490916449251015,7.228307420632626,14.0537562231369,129.836,-1.9835619999896608,0
11.189170961648337,-16.081165158585367,-31.06242854178587,20.288005437157334,-5.716521820476571,7.247059974200247,14.135879147841937,129.84,-1.97956199998967,0
10.799446193214596,-16.072188334524665,-30.29947340971764,20.06665595777195,-6.245025127602516,7.712819805551887,14.037764915306433,129.844,-1.9755619999896794,0
10.918376820123209,-16.618149308697777,-30.66361981948982,20.359254684938268,-6.442036120184931,8.761634961750014,13.68453878156109,129.848,-1.9715619999896603,0
11.552481530133504,-17.581820157389547,-32.13441940254463,21.112589835464068,-6.208104535860691,10.084529768863735,13.17474296133362,129.852,-1.9675619999896696,0
12.447656658926382,-18.597558899005417,-34.127443715170855,22.03328331404051,-5.650513091197465,11.196388443809392,12.698187288597515,129.856,-1.963561999989679,0
13.236853006064282,-19.357032850811212,-35.851636343916745,22.788628454592377,-5.069224575505017,11.878423822630152,12.37398848694621,129.86,-1.9595619999896599,0
13.568681606539423,-19.647141010545752,-36.56953271513712,23.094116988100616,-4.805538974497148,12.101126588027995,12.258287517512034,129.864,-1.9555619999896692,0
13.325877240579047,-19.457532351032462,-36.04971612248831,22.87997724466288,-5.013433233097584,11.987868678831573,12.326958542544938,129.868,-1.9515619999896785,0
12.676089965048599,-18.94106314429318,-34.656409243300985,22.303155132675947,-5.5638304155777725,11.664944806885458,12.517112898562022,129.872,-1.9475619999896594,0
11.969980661510231,-18.360822987805445,-33.137739624206795,21.66846204585262,-6.14939987185693,11.272365277438132,12.737154499068293,129.876,-1.9435619999896687,0
11.487005477049149,-17.904222817608435,-32.08454083585908,21.209594359249678,-6.510537716718837,10.8729163592349,12.929785174652723,129.88,-1.939561999989678,0
11.346538955669294,-17.67223797913478,-31.754254787889387,21.035046249486516,-6.550147504214776,10.539281852992609,13.05577321309059,129.884,-1.9355619999896874,0
11.51284733231509,-17.653740618921862,-32.074435236937,21.120253090654792,-6.309890861616329,10.291575167095768,13.1133911274096,129.888,-1.9315619999896683,0
11.865049915565558,-17.747179581778607,-32.78456091348159,21.35564109045016,-5.888549807592497,10.057726160430443,13.14187313640657,129.892,-1.9275619999896776,0
12.276988286792422,-17.875389581412183,-33.61970290493923,21.63879204885193,-5.408227796346436,9.825701755436876,13.161838191616669,129.896,-1.923561999989687,0
12.712515542209543,-18.150217465919138,-34.53633644934716,21.99585764327707,-4.992263280567095,9.885737468278721,13.084706542068094,129.9,-1.9195619999896678,0
13.160557254700514,-18.739835236530222,-35.55349705590184,22.490325412983378,-4.766763497010283,10.620324827197615,12.788888294560882,129.904,-1.9155619999896771,0
13.48880239529024,-19.519436037746644,-36.38272834892969,22.996604055500566,-4.8308459891815225,11.920645923475018,12.326958001592075,129.908,-1.9115619999896865,0
13.500668445462985,-20.082855717781612,-36.54209355569371,23.236648619260023,-5.1861883633572265,13.141096670018293,11.932723902091311,129.912,-1.9075619999896674,0
13.135436350600173,-20.10206893346355,-35.83376545814181,23.04065517266348,-5.699698483429204,13.638151803355042,11.821289548415953,129.916,-1.9035619999896767,0
12.527598315513947,-19.584951205127243,-34.52219127774808,22.48698972125182,-6.192143512630971,13.261554227404053,12.023143731336546,129.92,-1.899561999989686,0
11.822104461509369,-18.70196325945697,-32.931536663267345,21.727215377024542,-6.577185971960117,12.204469338919255,12.45689671723134,129.924,-1.895561999989667,0
11.059759619743675,-17.598643741157783,-31.176639669550074,20.844413405023705,-6.8948635355306545,10.735146997190155,13.030826924281035,129.928,-1.8915619999896762,0
10.184310401405183,-16.290794032841173,-29.15150740793817,19.813717064789277,-7.232737792388496,8.958298984585804,13.718712782387625,129.932,-1.8875619999896855,0
9.205039400122544,-14.836356144869958,-26.88826744318403,18.664314661730455,-7.616296401890186,6.989393930998867,14.482171997092367,129.936,-1.8835619999896664,0
8.316425423993252,-13.508897933339197,-24.83269597423304,17.61814326662716,-7.959290147809457,5.185954590146928,15.180360774614417,129.94,-1.8795619999896758,0
7.928198554529842,-12.897951592835948,-23.927144456375604,17.148241177798955,-8.088699008729627,4.330101602972753,15.50725372263972,129.944,-1.875561999989685,0
8.357840678168749,-13.461358460603044,-24.902050829114952,17.621575354731004,-7.871142427334448,5.030143148548417,15.224992535604366,129.948,-1.871561999989666,0
9.543603946845742,-15.08737594255262,-27.609863870479206,18.957370828735332,-7.317592422025463,7.118009798830223,14.395847660646067,129.952,-1.8675619999896753,0
10.990384804399405,-17.007128139304523,-30.89821918424821,20.560614922479058,-6.599850931777297,9.524732074289924,13.429466454161705,129.956,-1.8635619999896846,0
12.114917384048425,-18.351921363125605,-33.41851996208035,21.74570991034778,-5.944778929728744,11.072316601096384,12.782276359442172,129.96,-1.8595619999896655,0
12.562372180338306,-18.660187031263348,-34.36652063002419,22.123288984058323,-5.534512867078228,11.190803780608858,12.684755583360351,129.964,-1.8555619999896749,0
12.400506827503827,-18.148503321410047,-33.92684717783591,21.820915283031983,-5.41898588459876,10.27061689229786,13.002297381011132,129.968,-1.8515619999896842,0
11.95601680522908,-17.362180177101745,-32.869068189331976,21.24693807100423,-5.509874529286414,9.10035226470049,13.437815754786403,129.972,-1.847561999989665,0
11.582377180804578,-16.741313768505524,-31.989594475068763,20.781072035280197,-5.612737135621392,8.204580854659893,13.77561530845109,129.976,-1.8435619999896744,0
11.484968500559948,-16.40952012810711,-31.719234173258474,20.58921868493801,-5.527471519792796,7.598494575216108,13.98354406044438,129.98,-1.8395619999896837,0
11.816881644100766,-16.469918081761506,-32.38176530816074,20.799588124864965,-5.112160268026058,7.317479548802188,14.029894340180451,129.984,-1.8355619999896646,0
12.669858820969777,-17.114794136349904,-34.202762083030336,21.543073223691064,-4.367824775699456,7.668827293794417,13.803621656624516,129.988,-1.831561999989674,0
13.896466102440032,-18.347722273543727,-36.89528143493507,22.738824443208973,-3.498996421099649,8.844016774185999,13.26269280974355,129.992,-1.8275619999896833,0
15.012494876669857,-19.696258951843713,-39.399886805907286,23.920721598050218,-2.858054635181402,10.410400707072675,12.610583211139742,129.996,-1.8235619999896642,0
15.492250011470839,-20.48023993739326,-40.52594092886153,24.513421258987808,-2.7172626181663957,11.531604268788744,12.186167945173894,130.0,-1.8195619999896735,0
15.173529067613204,-20.35083905306374,-39.87248159331429,24.281831497139592,-3.0689714003178086,11.64490634307577,12.192025138867349,130.004,-1.8155619999896828,0
14.395338699767532,-19.579472753911116,-38.16689896863372,23.5277054631136,-3.6273237470696427,10.923089370213532,12.527561936519886,130.008,-1.8115619999896637,0
13.760104696911712,-18.903208272256173,-36.76337265905967,22.89280885384112,-4.052368228910527,10.231705709055932,12.834329900417677,130.012,-1.807561999989673,0
13.650061553006175,-18.94607876379291,-36.558920028750244,22.849119207457527,-4.2315449027776815,10.462763734739502,12.774599200117702,130.016,-1.8035619999896824,0
13.908649901058515,-19.691960006841484,-37.24402231363066,23.302530409885176,-4.368906410044739,11.775923057058645,12.317785362514607,130.02,-1.7995619999896633,0
14.006872839209006,-20.47305982118375,-37.62458766082516,23.680980854414152,-4.7494038440034645,13.366045796366425,11.793151836022853,130.024,-1.7955619999896726,0
13.66820709988722,-20.694895657908233,-37.01710207984754,23.583766846254342,-5.36012747927967,14.274236081418746,11.545915189475183,130.028,-1.791561999989682,0
13.214575982012255,-20.39030425773887,-36.057932781052116,23.204260992124063,-5.781286478654405,14.171497515138082,11.639189028171046,130.032,-1.7875619999896628,0
13.270296420806206,-20.088099810656626,-36.0936500565743,23.110176616802736,-5.505553149769529,13.439544695807145,11.867285283584424,130.036,-1.7835619999896721,0
14.077056521858095,-20.12296610466446,-37.676961980217754,23.575133082626227,-4.422250995595957,12.511086022169597,12.058903453824332,130.04,-1.7795619999896815,0
15.255502157784433,-20.3717100799909,-40.03754734079332,24.336253616975064,-2.970328725806646,11.588558072659108,12.199272299172351,130.044,-1.7755619999896624,0
16.122426108389917,-20.45365344468893,-41.7496860695472,24.85431032869928,-1.8355752973300345,10.688370333296788,12.373808041180284,130.048,-1.7715619999896717,0
16.36899221461337,-20.33437008967979,-42.20217425951349,24.942580287361178,-1.4187870369488214,10.119733381409745,12.524025502757908,130.052,-1.767561999989681,0
16.33423036372216,-20.493822099242827,-42.17286136954072,24.98922767985099,-1.5716250719866203,10.512612369891297,12.40223812730582,130.056,-1.763561999989662,0
16.670170560474254,-21.53585060710384,-43.080553668261224,25.608524192613963,-1.7982446062518125,12.37869025764613,11.757263870882639,130.06,-1.7595619999896712,0
17.616429438283728,-23.405242267723512,-45.37966153993589,26.911402523156283,-1.733645683021456,15.2984522688722,10.692265260368757,130.064,-1.7555619999896805,0
18.798969782079475,-25.337752271111757,-48.15527475532117,28.372374585277196,-1.3866681783530104,18.06228202771428,9.646068809715096,130.068,-1.7515619999896614,0
19.615113547004196,-26.476289228838354,-50.02370657274855,29.299809185559763,-1.0184452308385608,19.54180260411912,9.06171569574249,130.072,-1.7475619999896708,0
19.824024989512026,-26.66195270333611,-50.47640678703295,29.49338796481812,-0.854425744126243,19.688628124665144,8.986744155500118,130.076,-1.74356199998968,0
19.668892336471526,-26.49292875513004,-50.13271105820465,29.33673395439387,-0.9556740413982376,19.511296037831666,9.064391526035992,130.08,-1.739561999989661,0
19.596980955743998,-26.784945685145637,-50.062924569727464,29.417556396681743,-1.2468904133530812,20.241081337317727,8.839141978482859,130.084,-1.7355619999896703,0
19.821629834761527,-27.793412685699533,-50.74525095317541,29.960801355972528,-1.6039860520963791,22.172203847247026,8.188014652990406,130.088,-1.7315619999896796,0
20.204530986170123,-28.99792521698554,-51.78389511365224,30.673637118332003,-1.873378099695047,24.33601427878138,7.4410160470495,130.092,-1.7275619999896605,0
20.528517622383937,-29.674531366989147,-52.57991535916182,31.134868219777534,-1.8753681462161063,25.415836156988405,7.050592873217367,130.096,-1.7235619999896699,0
20.812993119751706,-29.70510933610504,-53.14263435758524,31.306393405568077,-1.5054391415709218,25.128532583041917,7.1052637268996355,130.1,-1.7195619999896792,0
21.198176262770076,-29.64761862371792,-53.880655844253035,31.497670007932093,-0.9393237792389225,24.522707571881597,7.249044404626224,130.104,-1.71556199998966,0
21.546728103663636,-29.978924472171425,-54.641156949096484,31.829564879621028,-0.6798785478374724,24.81490096440771,7.108766021413104,130.108,-1.7115619999896694,0
21.412768223950156,-30.5166957324069,-54.50965384162489,31.97755133962453,-1.218273085430992,26.1607610921203,6.693542003767877,130.112,-1.7075619999896787,0
20.47116385172485,-30.580465064380192,-52.6869554887591,31.47815861353411,-2.5515423043549617,27.47342849838887,6.396211893846517,130.116,-1.7035619999896596,0
18.924748218084616,-29.65777544658657,-49.4451327372919,30.232347964009147,-4.063543086187476,27.376753012600428,6.632602075371864,130.12,-1.699561999989669,0
17.39615596432101,-27.846291383441866,-46.023245493036356,28.628272917049145,-4.964881702004168,25.30929995272247,7.500689744389895,130.124,-1.6955619999896783,0
16.46948725494772,-25.841698504799382,-43.72969613953091,27.280321833190857,-4.913442375792244,22.068723767948814,8.666304164035264,130.128,-1.6915619999896876,0
16.20426214167676,-24.327301450187864,-42.84585672655553,26.504817234017786,-4.278292609923808,19.078951076353306,9.663420334619461,130.132,-1.6875619999896685,0
16.129690675279765,-23.4371120451198,-42.48509024200932,26.094379700877017,-3.793410136345908,17.22020206912336,10.27133997819499,130.136,-1.6835619999896778,0
15.724178929328058,-22.75655383829789,-41.5289687567616,25.58598597656482,-3.900607682260324,16.23326330060698,10.642702070820057,130.14,-1.6795619999896871,0
14.983474721003393,-21.940041582431785,-39.885649577423415,24.834089548026245,-4.377778910093552,15.365776460318951,11.020129340600251,130.144,-1.675561999989668,0
14.342257047824093,-21.00191562564203,-38.40713995428134,24.08736532547343,-4.6383130190183195,14.1077457043003,11.510000521343969,130.148,-1.6715619999896774,0
14.168680669332144,-20.19575821311867,-37.87341907085315,23.656454863941757,-4.344619493668378,12.556547248906439,12.032113995459957,130.152,-1.6675619999896867,0
14.324160502543076,-19.60252603825201,-38.033524311990874,23.49750877635443,-3.740134646978476,11.062290404277451,12.492225314046491,130.156,-1.6635619999896676,0
14.29441116590471,-19.022181603289944,-37.835157588322836,23.240466078495434,-3.3981523314746678,9.827009521175412,12.893604757511978,130.16,-1.659561999989677,0
13.600221484527587,-18.06458887446389,-36.24853494440807,22.456096315198597,-3.718486538442888,8.59228200393506,13.383010553653671,130.164,-1.6555619999896862,0
12.228291923691422,-16.563000898331012,-33.2073847425367,21.06789139669548,-4.609393622441774,7.009100735412782,14.074495207509857,130.168,-1.6515619999896671,0
10.61059973265383,-14.740514806148315,-29.608905108391276,19.40950306166528,-5.625657143355915,5.02850974543136,14.926464518145071,130.172,-1.6475619999896765,0
9.26814205891149,-13.063621042783222,-26.5829087116322,17.965128685658303,-6.360523586526414,3.0242811233242746,15.749501473047777,130.176,-1.6435619999896858,0
8.396496711405119,-11.82158855769439,-24.581112711277637,16.963823827503877,-6.736592644760939,1.3869915013892975,16.391981873434673,130.18,-1.6395619999896667,0
7.860186100275693,-11.004839094055148,-23.336734686764604,16.325966797782517,-6.933325327492998,0.264392320946992,16.824353889307538,130.184,-1.635561999989676,0
7.421016819817876,-10.393181127264938,-22.33156602168929,15.82732257966536,-7.1321214397827335,-0.5295670489895402,17.13809623824327,130.188,-1.6315619999896853,0
6.936683671592637,-9.736317630486184,-21.22730457214731,15.284729777911977,-7.363033970602842,-1.3663781711744252,17.471620894906163,130.192,-1.6275619999896662,0
6.387755318871261,-8.90379281077199,-19.95448180244893,14.633291187542953,-7.566664251519721,-2.5078463200470233,17.91173867837347,130.196,-1.6235619999896755,0
5.871478435805923,-8.016975237038947,-18.732273486568914,13.97759299721248,-7.689710212886641,-3.8090155278489575,18.39890303132507,130.2,-1.6195619999896849,0
5.510704160991749,-7.336713250562451,-17.863556011657195,13.494304335723331,-7.735755266091078,-4.8510297803311015,18.782045811926743,130.204,-1.6155619999896658,0
5.351503600157384,-6.974530556771074,-17.465224981985635,13.255355267004497,-7.715180318772538,-5.446772615444791,18.994849605812135,130.208,-1.611561999989675,0
5.373573095622888,-6.801706937610361,-17.466528555483443,13.196080492538247,-7.570927635355002,-5.853157703368397,19.122667243656025,130.212,-1.6075619999896844,0
5.536318836884758,-6.561223815077728,-17.726091391169504,13.18733172765999,-7.189141470170853,-6.583104332030088,19.33591044390341,130.216,-1.6035619999896653,0
5.749817750313105,-6.032333269584427,-18.01501015882742,13.087440710478322,-6.5475336082045645,-8.008568216632149,19.76618679245713,130.22,-1.5995619999896746,0
5.834947702782505,-5.111592394501365,-17.95861265703146,12.753526675256905,-5.823504004646242,-10.133221506727493,20.43845618486717,130.224,-1.595561999989684,0
5.652764789091589,-3.946284284813291,-17.321269592080263,12.169018128657486,-5.304727854987587,-12.461095145266231,21.211593959398325,130.228,-1.5915619999896649,0
5.186992430872154,-2.7847434613576585,-16.131239841285105,11.427708032195854,-5.177318741867519,-14.427470961408357,21.90607254285065,130.232,-1.5875619999896742,0
4.539373316423866,-1.7382080789554586,-14.614026954511464,10.632496328727541,-5.375127567594871,-15.915202950311576,22.470695906221977,130.236,-1.5835619999896835,0
3.8519261051064673,-0.6725687866871416,-13.014447107727399,9.807129249895233,-5.614951761628667,-17.395208199869177,23.038120500910697,130.24,-1.5795619999896644,0
3.2989555973875797,0.4979455529242616,-11.652027837137767,9.013408253166926,-5.601197602644619,-19.27264353466919,23.715559570972825,130.244,-1.5755619999896737,0
2.966705516015745,1.6580481424591187,-10.722995749887465,8.347255640186708,-5.291639867251524,-21.402181296253975,24.44480761473141,130.248,-1.571561999989683,0
2.799238941194656,2.487934633090959,-10.195465586110444,7.909926336211744,-4.973917090321173,-23.01301331191768,24.98529607785194,130.252,-1.567561999989664,0
2.626560282661898,2.724474530689411,-9.801196805847985,7.715503184739072,-5.0546945568635495,-23.31651086806942,25.105864232690575,130.256,-1.5635619999896733,0
2.334777903329502,2.346226582656261,-9.323043785982675,7.709269572125511,-5.70429226529629,-22.123803337342828,24.76086533051051,130.26,-1.5595619999896826,0
1.9048744153412902,1.7467360660406492,-8.62874666509403,7.717564494809991,-6.6892182516827186,-20.274004216350065,24.222794156934878,130.264,-1.5555619999896635,0
1.4818478666758612,1.4292584570685996,-7.879700118693142,7.612864930953134,-7.478707031386803,-19.05105097678509,23.88548687216743,130.268,-1.5515619999896728,0
1.3190607157019838,1.6312343060681436,-7.513096167760336,7.438284893724059,-7.568717784550955,-19.291091784033952,23.984325820851065,130.272,-1.5475619999896821,0
1.6628211842547254,2.115050842735724,-8.06719585267187,7.429808305783346,-6.778213484521489,-20.779989784437497,24.41771878885707,130.276,-1.543561999989663,0
2.5216402491714613,2.4711105420433905,-9.657629859005537,7.761879432695781,-5.365680954433908,-22.630352058050835,24.89903264757966,130.28,-1.5395619999896724,0
3.6315958875211503,2.449444311981531,-11.829621405720284,8.390678010131316,-3.8579046348165686,-23.965410117907446,25.181217948810307,130.284,-1.5355619999896817,0
4.55136137007003,2.1750206728045964,-13.691442832177156,9.017984911971151,-2.7776443616548434,-24.50942691359351,25.234147152579737,130.288,-1.5315619999896626,0
4.896845676665749,2.017418626301462,-14.403964522820058,9.27620331495633,-2.407835964062062,-24.594237667545563,25.215570536504163,130.292,-1.527561999989672,0
4.563296161031007,2.248217609949728,-13.697046171692495,8.994324897862453,-2.7129999226715467,-24.68476850335727,25.288975928878155,130.296,-1.5235619999896812,0
3.853739817914823,2.7077169957682394,-12.200835498378655,8.407728428553137,-3.3829331188640728,-24.80834453321248,25.42292790821903,130.3,-1.5195619999896621,0
3.2862727639846963,2.9313727845228823,-11.039011510472053,7.9981848960171575,-4.01357636602047,-24.59184750115889,25.428604933126667,130.304,-1.5155619999896714,0
3.1966569461520256,2.6401500438908556,-10.934472050391498,8.068791785768438,-4.328546763093013,-23.841750753640973,25.19917079131414,130.308,-1.5115619999896808,0
3.504797146303632,2.0131802163191788,-11.687559219568028,8.500610145796209,-4.319528229692014,-22.851012355799714,24.839512296640674,130.312,-1.5075619999896617,0
3.816914166251858,1.5430855478832834,-12.410486484224876,8.86965766592033,-4.201586355709682,-22.209157728027805,24.591573187906842,130.316,-1.503561999989671,0
3.759317011656183,1.6220659509622564,-12.278957817002068,8.804773531552913,-4.228475509750105,-22.31057001952234,24.631846852103106,130.32,-1.4995619999896803,0
3.25684493412847,2.261210258141451,-11.14357065448374,8.259392428320197,-4.495948728604789,-23.085940095042236,24.94801185754061,130.324,-1.4955619999896612,0
2.6263314007484593,3.005206034604982,-9.73288581288898,7.599071529464162,-4.869846637878163,-23.931696425318243,25.303819911267745,130.328,-1.4915619999896705,0
2.2747248232078348,3.3398366484317177,-8.965617799746616,7.264093416598913,-5.131287875069227,-24.227373998713087,25.445624785290416,130.332,-1.4875619999896799,0
2.308651463463181,3.1643477936608764,-9.074269059544266,7.35574178416936,-5.200511744895918,-23.884894380676247,25.33093414382295,130.336,-1.4835619999896608,0
2.4080074681515304,2.9346726768165894,-9.323744561195324,7.506376028045364,-5.215752815128918,-23.505116481937442,25.195557685248154,130.34,-1.47956199998967,0
2.201908354474761,3.1494837118419436,-8.869488170622637,7.302292212107167,-5.356690968809114,-23.719347616611216,25.291842477619042,130.344,-1.4755619999896794,0
1.628820375028071,3.9140165801568676,-7.565939598295458,6.665530665266225,-5.638296388605282,-24.681658258938548,25.677526625388058,130.348,-1.4715619999896603,0
1.0394601954598128,4.792475946240063,-6.203085269049593,5.9724839390262705,-5.867073269747182,-25.873470663835484,26.13920912190605,130.352,-1.4675619999896696,0
0.8992673053909807,5.168412374258964,-5.838534441427282,5.738451137926454,-5.8113618325494825,-26.523042856028983,26.366808312429285,130.356,-1.463561999989679,0
1.4067263561017613,4.6982391322210715,-6.942809557456405,6.216614296942144,-5.42560197990818,-26.124333640495294,26.17116539259486,130.36,-1.4595619999896599,0
2.246957602227128,3.6823225929059267,-8.828620425475956,7.106699618685446,-4.9434715853714515,-24.943647165529413,25.679759362558286,130.364,-1.4555619999896692,0
2.872903622071693,2.7637614174453056,-10.272588521734704,7.83679036518681,-4.690974959591133,-23.70948753746258,25.199595614084576,130.368,-1.4515619999896785,0
2.9775922464055093,2.368675889833824,-10.572460281140327,8.058930092065104,-4.808003052793427,-22.97370915865684,24.948974264286115,130.372,-1.4475619999896594,0
2.7545665556685117,2.3282034480713976,-10.146873744340374,7.9511551375049345,-5.140529438794258,-22.607177720452675,24.860655762342407,130.376,-1.4435619999896687,0
2.619468388803386,2.1815168173531863,-9.918607559888924,7.936484076801879,-5.4225376176156,-22.11730658545589,24.720982480001922,130.38,-1.439561999989678,0
2.7927110044990537,1.677333660649411,-10.378677476771209,8.242103686859194,-5.51751598623332,-21.227735271460055,24.411780382456893,130.384,-1.4355619999896874,0
3.066191743228274,1.1121136021624187,-11.049178189775203,8.62898525551709,-5.515297259083432,-20.32920418457471,24.086389032525535,130.388,-1.4315619999896683,0
2.9983334450068813,1.1217835993701537,-10.914373792141228,8.587085589692217,-5.601972367522127,-20.265880338959388,24.07502386455346,130.392,-1.4275619999896776,0
2.3314340936822218,2.111472670746047,-9.37326584826337,7.804658172380564,-5.863713974606272,-21.60496807996241,24.594382966023197,130.396,-1.423561999989687,0
1.2692499394818186,3.8091140277583047,-6.889378262684374,6.508198917538626,-6.200560779513412,-24.003791532055427,25.50716768947444,130.4,-1.4195619999896678,0
0.282019602793588,5.471085172247951,-4.560431605500287,5.2683732063532,-6.458151423859549,-26.41777459560189,26.41487964356696,130.404,-1.4155619999896771,0
-0.3492141990169551,6.54988316582141,-3.0674054466853145,4.4689453752592065,-6.612211882429113,-27.996648062864924,27.006651049915682,130.408,-1.4115619999896865,0
-0.6980074334033024,7.030829513025419,-2.270258937754002,4.074921361735122,-6.773289907633452,-28.616609888642465,27.252415292672673,130.412,-1.4075619999896674,0
-0.9798511790099037,7.243659382425018,-1.6686197283561663,3.829360928988187,-7.019402334382606,-28.732150177030245,27.32700310736572,130.416,-1.4035619999896767,0
-1.261322093227954,7.442974009180684,-1.0709755086239658,3.5896079031505552,-7.273917736964028,-28.818524290926614,27.39215771741132,130.42,-1.399561999989686,0
-1.4107974387326105,7.632422545317999,-0.7333860071548484,3.427651379337886,-7.353936823393338,-29.047681605406048,27.485727950030963,130.424,-1.395561999989667,0
-1.2480381527061275,7.634555473341527,-1.05059419288567,3.5176559304704607,-7.129340470537465,-29.255090466516172,27.53085187883346,130.428,-1.3915619999896762,0
-0.8295084600963388,7.468138421397776,-1.9078393536309843,3.8203163646045097,-6.665180057316291,-29.411560561560147,27.52563364660149,130.432,-1.3875619999896855,0
-0.5078211165454715,7.490089734150723,-2.530501458824185,3.9908591466172307,-6.209576283833039,-29.860379386758105,27.627329365192885,130.436,-1.3835619999896664,0
-0.6567430557797735,8.106190433190493,-2.0908531342489796,3.652454557968873,-6.007429975453161,-31.02561047859908,28.021991652921663,130.44,-1.3795619999896758,0
-1.2458315197148653,9.19646327744665,-0.6773253148661664,2.8718076683779223,-6.096128664629238,-32.68213735578944,28.633151909175165,130.444,-1.375561999989685,0
-1.8689763997462538,10.174635538155368,0.7755850693455644,2.118584948059924,-6.305466505893729,-34.05047633945636,29.156113689535502,130.448,-1.371561999989666,0
-2.1234889225004094,10.516809881883184,1.3551385692314928,1.8347009108818775,-6.428788409457202,-34.48363282604877,29.329260796009844,130.452,-1.3675619999896753,0
-1.97585123236861,10.277108440891055,1.008988205310578,2.016450451606117,-6.384434529604406,-34.14201297520701,29.19975163937231,130.456,-1.3635619999896846,0
-1.7032467802997953,9.931986682308818,0.3934047850207101,2.3116584817178483,-6.238247438908494,-33.72492990380489,29.02937417396583,130.46,-1.3595619999896655,0
-1.5994143807754417,9.898600219291284,0.18264180338973124,2.383472299988918,-6.117884191204143,-33.78106747504663,29.033651724356286,130.464,-1.3555619999896749,0
-1.5787421573144382,9.948351562638868,0.15431429586065032,2.374404692082803,-6.0567222183896305,-33.91589070056546,29.07428452568722,130.468,-1.3515619999896842,0
-1.151933064203568,9.262245332131092,-0.844723106143335,2.896989784294706,-5.923979221362351,-32.943316482248356,28.70471675753181,130.472,-1.347561999989665,0
0.1939921990419411,7.081811229905929,-3.9992147370283906,4.55191152309928,-5.516477290572882,-29.839454386782094,27.527431462336228,130.476,-1.3435619999896744,0
2.4147209315385187,3.5503012183189075,-9.188027583174797,7.255077121706304,-4.800497269419277,-24.86317159648748,25.631597177517843,130.48,-1.3395619999896837,0
4.8189671092849045,-0.29561465056557124,-14.81109105888185,10.190977451786956,-4.040234673416201,-19.42618010662823,23.56317592842001,130.484,-1.3355619999896646,0
6.55651790291674,-3.3555759338351816,-18.942695645274583,12.428969125271495,-3.6758109267188965,-14.881866631435924,21.870462109076374,130.488,-1.331561999989674,0
7.32077791213221,-5.4313937787840025,-20.93642354267431,13.715735471653995,-3.9969368149961726,-11.28284214439187,20.611082897060157,130.492,-1.3275619999896833,0
7.635716487778647,-7.407135344129343,-22.02883471256172,14.710130851202194,-4.868203714731197,-7.343549121410976,19.301875553852412,130.496,-1.3235619999896642,0
8.501077323857466,-10.522237110691051,-24.471159478789854,16.483917430470942,-5.736170847267215,-1.5919484388529384,17.336521121272657,130.5,-1.3195619999896735,0
10.597403143789426,-15.287470931417593,-29.71536541318453,19.628731460219814,-6.00450871559519,6.244084070683777,14.537126385504282,130.504,-1.3155619999896828,0
13.778034273395122,-21.09228102942259,-37.327560810804684,23.809728845714382,-5.471626057254324,15.00865602880504,11.295048749567064,130.508,-1.3115619999896637,0
17.36512859161272,-26.96938078514283,-45.750691834148675,28.247652576415025,-4.429046108390782,23.42542471704969,8.11091284260485,130.512,-1.307561999989673,0
20.889426318005523,-32.65656311593836,-54.00532634652839,32.57182876196288,-3.3473146150102293,31.504041210795634,5.04390778671293,130.516,-1.3035619999896824,0
24.456190851079562,-38.801315821725815,-62.45347399528151,37.109285462208796,-2.5091481906929194,40.53293011030487,1.6655315841069833,130.52,-1.2995619999896633,0
28.342477635498735,-46.02059571188896,-71.78512057865525,42.27033437918537,-1.9415501180293238,51.51959656861918,-2.3851421747297863,130.524,-1.2955619999896726,0
32.31258378234687,-53.85997163896839,-81.43029402216658,47.73508846323764,-1.668007810455969,63.76134507537033,-6.850743849363945,130.528,-1.291561999989682,0
35.32302708392489,-60.55985193975662,-88.9266390690861,52.1918667172245,-1.9588618563487723,74.70023834165794,-10.769779277615921,130.532,-1.2875619999896628,0
36.120452822920385,-64.10722574590827,-91.34084483286236,54.106802262496295,-3.205100653015993,81.48416422779867,-13.058248081428795,130.536,-1.2835619999896721,0
34.33007313897323,-63.78414990433958,-87.76772873154302,52.97317008227721,-5.4471325608819265,83.0059522722687,-13.310184296754741,130.54,-1.2795619999896815,0
31.076818420191827,-60.961127842029974,-80.73458330714875,49.98693875136218,-8.046297720248972,80.86905807498893,-12.190806377115296,130.544,-1.2755619999896624,0
28.250516476130663,-58.05255209476656,-74.51421426775183,47.203682893433395,-10.003559938495723,78.01278593830315,-10.896659006853193,130.548,-1.2715619999896717,0
27.050405764079265,-56.64900645457126,-71.83217392620674,45.952043039017106,-10.723519910592428,76.43053366379641,-10.22828217552243,130.552,-1.267561999989681,0
27.071851095998987,-56.40155992149943,-71.81421967978027,45.861504301033506,-10.530904177422789,75.8613241112586,-10.047995729588658,130.556,-1.263561999989662,0
26.83654520123069,-55.69400786363825,-71.18383299067882,45.43697385069362,-10.386896506761769,74.60319641748009,-9.611978108325589,130.56,-1.2595619999896712,0
25.116269446845667,-53.1512169126907,-67.21097220194748,43.422886659508336,-11.068740722900586,71.17120003174273,-8.279426300557967,130.564,-1.2555619999896805,0
22.027516548295996,-48.90756172764844,-60.15552754965724,39.93996458319963,-12.505321341177604,65.714832403766,-6.1139029167783585,130.568,-1.2515619999896614,0
18.891461314068355,-44.49011208441052,-52.96573043196404,36.35862683954818,-13.892137565639468,59.93636066374891,-3.8384687353514395,130.572,-1.2475619999896708,0
17.119487327635614,-41.6309303483035,-48.81546459499705,34.18459319724198,-14.436193310586118,55.87511008821974,-2.296602359210689,130.576,-1.24356199998968,0
17.033419410558846,-40.88653963273211,-48.467501246943385,33.828138530062496,-14.063240047200283,54.35032743857926,-1.7946044523248292,130.58,-1.239561999989661,0
17.76343460848354,-41.40005610656086,-50.01670794758084,34.44853831309367,-13.400879902334436,54.56684603937697,-1.9611750044780218,130.584,-1.2355619999896703,0
18.122045142813267,-41.76255351294217,-50.80438497896261,34.79897247491498,-13.148214307781803,54.914894147068196,-2.120758965109845,130.588,-1.2315619999896796,0
17.622554238484827,-41.186486119322446,-49.690065638592294,34.28138816327885,-13.453203058653274,54.27409940771871,-1.8482869929143502,130.592,-1.2275619999896605,0
16.706638165701282,-39.95284209445447,-47.60387620603924,33.258836846546494,-13.895512713096103,52.71034402795295,-1.2235880266109307,130.596,-1.2235619999896699,0
16.17741017581857,-38.96066920757851,-46.33091727098015,32.55225898847019,-13.966829254054169,51.19432761939888,-0.6655810510748288,130.6,-1.2195619999896792,0
16.408784829565363,-38.83813764469195,-46.752964872430105,32.63070002619428,-13.568730403618785,50.637491800905174,-0.5171437359240157,130.604,-1.21556199998966,0
17.069294785183406,-39.44123475782212,-48.18814506605531,33.249398855843054,-13.060766436159975,51.1369809713119,-0.7655283523009702,130.608,-1.2115619999896694,0
17.552185370000956,-40.174269381604304,-49.308004125973,33.82274292436913,-12.88207218222364,52.14258514369101,-1.1531677482601748,130.612,-1.2075619999896787,0
17.5553331440551,-40.60298880468292,-49.41778779562705,34.00211424810517,-13.160525700666128,53.078580961298755,-1.4547260524829337,130.616,-1.2035619999896596,0
17.238800356058572,-40.71286631902228,-48.826443271726006,33.870876695049986,-13.667054495904582,53.71374708948745,-1.6170600539431554,130.62,-1.199561999989669,0
16.90295217699119,-40.637398727653135,-48.15258757751518,33.65206667066247,-14.077822341994695,53.96662518882573,-1.6538353893163904,130.624,-1.1955619999896783,0
16.67204716012214,-40.38718750303885,-47.641349708538186,33.41946482554601,-14.229427619222022,53.705681508795855,-1.539228663664963,130.628,-1.1915619999896876,0
16.37507120326096,-39.72349002753609,-46.90117779249852,32.97866496974391,-14.198912365489898,52.62051592148303,-1.1506719089634088,130.632,-1.1875619999896685,0
15.754062489108891,-38.41270239345561,-45.372030809857044,32.0888363942959,-14.185938141720182,50.520296227993384,-0.3925237663653345,130.636,-1.1835619999896778,0
14.772597452406044,-36.58433042549344,-43.01411281628028,30.78329219455257,-14.325870095170037,47.73431777319048,0.6341059167946692,130.64,-1.1795619999896871,0
13.80765922614221,-34.92508316765825,-40.72934125330723,29.55704334035,-14.554688470327209,45.29853949739258,1.5458708274078943,130.644,-1.175561999989668,0
13.349577609125417,-34.14829764717304,-39.64733562641834,28.97942762494954,-14.670505799865932,44.16611464860277,1.9710191907795633,130.648,-1.1715619999896774,0
13.6015141801782,-34.38960752666021,-40.19747755691004,29.220086205791286,-14.484189194799061,44.38134631583799,1.8683275765618328,130.652,-1.1675619999896867,0
14.285558832388142,-35.02972181964235,-41.68754858774033,29.867263096715845,-13.968367808241435,44.93267650430705,1.6001397822130947,130.656,-1.1635619999896676,0
14.874008648843423,-35.215553247563456,-42.88118952456868,30.272853644956047,-13.284003417642245,44.60711793975932,1.6267659562156176,130.66,-1.159561999989677,0
14.897887754545652,-34.37497030509096,-42.72460114184801,29.937944364606956,-12.696835929267799,42.734495388246636,2.226079868807577,130.664,-1.1555619999896862,0
14.30812539163265,-32.636147234188364,-41.15297690432704,28.888234233973037,-12.35869513864962,39.656938176757286,3.2945214748021034,130.668,-1.1515619999896671,0
13.55346801164589,-30.764584929390658,-39.22737123036525,27.691450925147493,-12.159121909695845,36.493758810045264,4.412400322613138,130.672,-1.1475619999896765,0
13.333899432178347,-29.757284426180036,-38.55524413304648,27.151526178143616,-11.79582911242892,34.55886569590169,5.064066365431814,130.676,-1.1435619999896858,0
14.034217063566187,-30.12743455204307,-40.01182049777799,27.695947183270157,-11.079632835796549,34.49806175288194,4.990661885899358,130.68,-1.1395619999896667,0
15.387995004174845,-31.542690710793604,-42.996666864045274,29.038249574416245,-10.156675029932073,35.914580337335686,4.355207688844204,130.684,-1.135561999989676,0
16.58110369312028,-32.9432628549449,-45.66431968151746,30.284747466968863,-9.444355608854332,37.49903528025363,3.6870517049739564,130.688,-1.1315619999896853,0
16.805732528933216,-33.1844203425345,-46.16111710807283,30.510093701531062,-9.295385207440157,37.74794731123605,3.5771491163471936,130.692,-1.1275619999896662,0
15.824012569874702,-31.754873062546636,-43.89911358127996,29.369635642547077,-9.698719110618107,35.83666239198881,4.322395150034149,130.696,-1.1235619999896755,0
14.152555179685796,-29.145071285382535,-40.00535230625175,27.35504783290007,-10.26942112467152,32.196944622533714,5.715297081186248,130.7,-1.1195619999896849,0
12.632500194434275,-26.455757099218317,-36.38792359281838,25.39206522217776,-10.580063216022559,28.19431873307444,7.20485975837279,130.704,-1.1155619999896658,0
11.785745612430043,-24.56287132260324,-34.27737943135923,24.13501883440625,-10.492717296408024,25.09910627998097,8.313097323553222,130.708,-1.111561999989675,0
11.556054377437764,-23.612873071015603,-33.59934408952408,23.613181050002073,-10.181100341121336,23.30245034307214,8.921631731149034,130.712,-1.1075619999896844,0
11.547542143381317,-23.137553284802415,-33.46782321357836,23.411508103233626,-9.879266879590931,22.2709706969672,9.254622434389585,130.716,-1.1035619999896653,0
11.432392748528752,-22.587705356726364,-33.110118544989,23.119410574919762,-9.674507022126395,21.208923957884604,9.61160364250865,130.72,-1.0995619999896746,0
11.143114682265209,-21.765509234162938,-32.346658195839744,22.617245210758597,-9.528894973085803,19.76668033608108,10.11402217398362,130.724,-1.095561999989684,0
10.81590802027823,-20.922278026034483,-31.504072075697664,22.085185128563573,-9.421419789396793,18.32556356393743,10.62111317834972,130.728,-1.0915619999896649,0
10.5226580483288,-20.31759777132565,-30.78544054275317,21.670916098680035,-9.42472107049414,17.365145179980534,10.969040057583586,130.732,-1.0875619999896742,0
10.161337648662961,-19.847561447323475,-29.96647704193065,21.274416550843437,-9.610173335276471,16.784706105102686,11.203751519921514,130.736,-1.0835619999896835,0
9.615059087472662,-19.158150335887065,-28.73342334085196,20.683748027836195,-9.904563351438668,15.953697276368045,11.54363263650079,130.74,-1.0795619999896644,0
9.009543743424413,-18.18792146879344,-27.316847965745062,19.943660867027813,-10.094965271534646,14.58081392692372,12.0657161686972,130.744,-1.0755619999896737,0
8.557741808313692,-17.207152725786063,-26.197789941686693,19.28504394776754,-10.067630362169554,12.993358004380257,12.636429269180828,130.748,-1.071561999989683,0
8.266268952092894,-16.476359663469722,-25.452140951054208,18.819520206570175,-9.985314617916128,11.754238618670668,13.073787455106334,130.752,-1.067561999989664,0
7.887147995927257,-15.925013267901964,-24.57877288878689,18.37939462443027,-10.14154693962252,11.017709159740733,13.361081316213133,130.756,-1.0635619999896733,0
7.256982019778989,-15.320631015239305,-23.2025167679005,17.77710809072933,-10.607052992959655,10.477606067530559,13.618504598060579,130.76,-1.0595619999896826,0
6.490614337916713,-14.489479597795402,-21.50556082222842,17.00481580357663,-11.109760647918469,9.609990970805457,13.99937995564348,130.764,-1.0555619999896635,0
5.933977699374747,-13.562266857456532,-20.1948007307011,16.30984462505353,-11.261507981905542,8.270532170630633,14.504221075004246,130.768,-1.0515619999896728,0
5.8134472748102715,-12.840038655635611,-19.78492040407999,15.943327046235495,-10.950430380357458,6.837264649925775,14.981350469101493,130.772,-1.0475619999896821,0
5.971936883483555,-12.444282477743219,-19.99863901160638,15.8678737214002,-10.472067305311276,5.772201624830065,15.302976564947036,130.776,-1.043561999989663,0
5.87888066142806,-11.953419958081238,-19.698321781081166,15.612550462418046,-10.275916331542815,4.811954208645162,15.624272738213936,130.78,-1.0395619999896724,0
5.052882581290366,-10.618521111980277,-17.763184637634012,14.59826252725799,-10.528138160781072,2.914207910344958,16.344490891502026,130.784,-1.0355619999896817,0
3.4334015546534977,-7.910982335213597,-13.947259871668352,12.572208090935337,-10.963101422529606,-1.0045283456970033,17.8202623295197,130.788,-1.0315619999896626,0
1.3822704818292253,-3.9769766656881,-8.992220549189964,9.797000046833404,-11.181040901431656,-7.074485842746561,20.045453430393643,130.792,-1.027561999989672,0
-0.6701884088172895,0.4200661869638654,-3.922654314769557,6.829219526271323,-11.095396252531454,-14.157943725597043,22.59689698848015,130.796,-1.0235619999896812,0
-2.4846020435214613,4.330927752872706,0.5646919939564675,4.19578780085044,-11.003993540785158,-20.472015317254243,24.869203353881243,130.8,-1.0195619999896621,0
-4.050957486700146,7.221998848540593,4.321277057228259,2.1233644694125795,-11.245054212850754,-24.859297626397613,26.488668950767075,130.804,-1.0155619999896714,0
-5.465064567079244,9.344125400676399,7.594771699531478,0.4545247233576921,-11.784510768133691,-27.750400161210504,27.606553672857864,130.808,-1.0115619999896808,0
-6.831230460670112,11.5811033728747,10.802444185573822,-1.2351252848434797,-12.18247381252185,-30.953016318509107,28.81829831809604,130.812,-1.0075619999896617,0
-8.309316479246537,14.929110278134583,14.497177664439288,-3.4475603844229705,-12.001111183893196,-36.45202463388234,30.783724738871193,130.816,-1.003561999989671,0
-10.167558970832925,19.896700612922267,19.325536864345295,-6.543257673743154,-11.27282489443892,-45.02825604832999,33.789660110077484,130.82,-0.9995619999896803,0
-12.622600603136618,26.122659232271506,25.62311144770217,-10.493547669582448,-10.532940305691763,-55.61993932643231,37.52325722486954,130.824,-0.9955619999896612,0
-15.484187340565576,32.34564688844338,32.713588022167805,-14.669630142334043,-10.352504906680764,-65.69871728080811,41.14580475977738,130.828,-0.9915619999896705,0
-18.10923601534761,37.064728427118204,38.978761506706356,-18.090573741557254,-10.839637929796742,-72.77499014594997,43.770947898827096,130.832,-0.9875619999896799,0
-19.795044014690895,39.444907165104844,42.845027527401044,-20.018045040367326,-11.581470959559985,-75.89341144094894,44.998036763061286,130.836,-0.9835619999896608,0
-20.286914775247826,39.79637447045767,43.89017656880257,-20.43832486291762,-12.024149556538264,-76.05128866180607,45.114126817249534,130.84,-0.9795619999896701,0
-19.879160643887776,39.15753731833361,42.93976337480238,-19.94596349809509,-11.886359146790028,-75.15861148726526,44.77279408290216,130.844,-0.9755619999896794,0
-19.18277044930547,38.62537203613033,41.451688158793836,-19.336614634667544,-11.282408675059697,-74.85932433503109,44.58405789913958,130.848,-0.9715619999896603,0
-18.654209171496536,38.72225636175013,40.443300017138064,-19.08159299708769,-10.493698071560551,-75.73010673057239,44.794050591828935,130.852,-0.9675619999896696,0
-18.31915058958941,39.262133960757126,39.91973959246086,-19.11815435628297,-9.67815041168616,-77.33107293212713,45.264654736467634,130.856,-0.963561999989679,0
-17.8556508650018,39.640046948300466,39.106294693714105,-19.01589140648157,-8.793300031289025,-78.73693691215564,45.655437572913456,130.86,-0.9595619999896599,0
-17.073098425161994,39.52538193114694,37.55094816563512,-18.531393310453137,-7.795826264988641,-79.46029329556957,45.78428119939129,130.864,-0.9555619999896692,0
-16.12726235643026,39.09496676563429,35.60052464511702,-17.824902545983633,-6.782702926750561,-79.69479057552333,45.73416699393646,130.868,-0.9515619999896785,0
-15.31527260838832,38.74779418153263,33.931506785581426,-17.227640820955692,-5.898216960506476,-79.94506864779213,45.70689807052855,130.872,-0.9475619999896594,0
-14.676196628659465,38.57800393074693,32.6429158834883,-16.80042523713324,-5.133849355767272,-80.36885545405026,45.75840686137503,130.876,-0.9435619999896687,0
-13.97332392225093,38.32953905159125,31.210767994379463,-16.304990226827883,-4.333889530720112,-80.699622519362,45.77151915319025,130.88,-0.939561999989678,0
-12.942730952763823,37.64060290647323,29.032394793476062,-15.444067154140194,-3.3750526456383776,-80.47291613768576,45.56176919027884,130.884,-0.9355619999896874,0
-11.634506431711953,36.45094014909893,26.191008723888046,-14.220663507056951,-2.365767207415113,-79.49424317454044,45.07323144773754,130.888,-0.9315619999896683,0
-10.448717766125812,35.12457159376533,23.555583403941302,-13.008994964991466,-1.614543249604274,-78.06335302480096,44.4554540078159,130.892,-0.9275619999896776,0
-9.85689814349668,34.23101241064967,22.184277736554694,-12.30831915312511,-1.3923531388555108,-76.84149953296874,43.98377982124169,130.896,-0.9235619999896869,0
-9.986890490458274,34.06964977013007,22.39902901928573,-12.314058914348076,-1.677039618313048,-76.32581278046139,43.835123014165,130.9,-0.9195619999896678,0
-10.541080633811584,34.462868238229305,23.57592521280273,-12.786436215181508,-2.177638145756089,-76.49759958345912,43.96396112717629,130.904,-0.9155619999896771,0
-11.101697643416083,34.98522096272739,24.796584334451367,-13.31590125450879,-2.6018768001706416,-76.94449269276016,44.18216309367695,130.908,-0.9115619999896865,0
-11.478714037255676,35.320216587885845,25.613543306396405,-13.665219961706649,-2.897921414055537,-77.2093200897499,44.31741560848552,130.912,-0.9075619999896674,0
-11.786351645340414,35.459016347089445,26.2476388561989,-13.89451440249601,-3.228232566408424,-77.13042932081787,44.33287273177436,130.916,-0.9035619999896767,0
-12.215677563984222,35.57988024759031,27.114947378282256,-14.184331527402154,-3.7372431378606485,-76.86064156426178,44.30306616763621,130.92,-0.899561999989686,0
-12.749790249045278,35.78172017322093,28.206386237144237,-14.56621121892259,-4.336537069807969,-76.63786197073564,44.3022940981463,130.924,-0.8955619999896669,0
-13.082634433294622,35.89155478656731,28.882685710350156,-14.797581612708127,-4.720518159294026,-76.46407127684338,44.29056498522267,130.928,-0.8915619999896762,0
-12.950588774852317,35.75279343608265,28.591373999359465,-14.666357311457794,-4.6309684662211295,-76.32432924163032,44.228076358719456,130.932,-0.8875619999896855,0
-12.505912873753674,35.59195118254918,27.684436255215086,-14.351405861210447,-4.127277157924162,-76.52558909287522,44.233797547999224,130.936,-0.8835619999896664,0
-12.317819825084936,35.99649042290583,27.415051740500424,-14.413966726360215,-3.6025262631032935,-77.64678193526325,44.5695525864054,130.94,-0.8795619999896758,0
-12.875805965927368,37.30060894817307,28.81955962210168,-15.265839239839831,-3.507528800258535,-79.81088119751011,45.339886633261074,130.944,-0.8755619999896851,0
-14.210048668714949,39.21332232900236,31.886526669548307,-16.803323567058467,-4.075590872244059,-82.3423490201037,46.331463129570444,130.948,-0.871561999989666,0
-15.849619339286885,40.88808391831265,35.49200446774589,-18.412728736377264,-5.219290541468877,-83.97181969809887,47.073369929173325,130.952,-0.8675619999896753,0
-17.206158261836364,41.52151220426477,38.2932410637879,-19.43267059556888,-6.661703827763457,-83.67083397527985,47.15661339239583,130.956,-0.8635619999896846,0
-18.016656374922007,40.9237302020013,39.73091324022707,-19.637615511387,-8.167407034367852,-81.35071260250578,46.517748080954206,130.96,-0.8595619999896655,0
-18.619712274520097,39.80822067739432,40.63847994851888,-19.51223176913061,-9.730124620882702,-78.15392445076564,45.56929248938579,130.964,-0.8555619999896749,0
-19.613300576094513,39.192057019524874,42.429120463617075,-19.811802776895117,-11.499020819531856,-75.56544666669333,44.86839335607278,130.968,-0.8515619999896842,0
-21.291358832431186,39.562246643582505,45.79436225295352,-20.90223101611095,-13.555953131917335,-74.28685738795623,44.67979147187954,130.972,-0.8475619999896651,0
-23.345930890840506,40.509239313638616,50.03403656154593,-22.441875346295223,-15.748752195909582,-73.80385573271583,44.79713829057646,130.976,-0.8435619999896744,0
-25.189494822795403,41.29988350622592,53.82400432486456,-23.79891493203563,-17.755321358093745,-73.24090984984592,44.860753131680056,130.98,-0.8395619999896837,0
-26.415839894672157,41.562906678600235,56.28154644706079,-24.59269922357226,-19.263509341680987,-72.29002390303611,44.71761923730036,130.984,-0.8355619999896646,0
-27.034762815856915,41.52745176011653,57.48118030848708,-24.923630196846034,-20.135614677747835,-71.44136392695775,44.52673954880478,130.988,-0.831561999989674,0
-27.285855077603866,41.60420347386559,57.98989367259857,-25.095642736651836,-20.429310948823854,-71.29687292951941,44.5135845461347,130.992,-0.8275619999896833,0
-27.320157706201464,41.863704505331505,58.11958805300437,-25.222306345402234,-20.305190843909877,-71.82307098800261,44.68743332518017,130.996,-0.8235619999896642,0
-27.053381204440363,41.909060951091774,57.6097758438819,-25.092123407260633,-19.90944824335746,-72.25480595793967,44.790922018024325,131.0,-0.8195619999896735,0
-26.38700331169122,41.34928142302039,56.17361241697111,-24.488093777203893,-19.364866721690014,-71.8575945662672,44.57466453686073,131.004,-0.8155619999896828,0
-25.514338018606413,40.34979898849032,54.22845955682922,-23.58670506457806,-18.827420545609215,-70.75333771371079,44.103542797184836,131.008,-0.8115619999896637,0
-24.870333497424372,39.55357743191658,52.77881375274597,-22.897213973390123,-18.469469135484083,-69.80988688103335,43.714512302669284,131.012,-0.807561999989673,0
-24.758502408436065,39.47105003484634,52.54055710382048,-22.800574993711752,-18.370549230410194,-69.7682519136148,43.68627140750592,131.016,-0.8035619999896824,0
-25.04726354183903,39.97293225873829,53.22557548305737,-23.16974931666749,-18.435497418414037,-70.50888905030823,43.96289158543305,131.02,-0.7995619999896633,0
-25.265764663615737,40.42946139439499,53.76247500892112,-23.480899711242866,-18.43401252053604,-71.23761064153719,44.22635113361565,131.024,-0.7955619999896726,0
-24.963345080440753,40.2433761944195,53.127134801514785,-23.23492930912595,-18.142044781225923,-71.2063341063831,44.17614228124139,131.028,-0.7915619999896819,0
-24.109435292248474,39.43308757051522,51.264330541139614,-22.422394889960984,-17.50553140564852,-70.49350050665734,43.83344398286046,131.032,-0.7875619999896628,0
-23.116798896950943,38.599050022514305,49.124975800690926,-21.522553717057523,-16.69444822063086,-69.90139780454473,43.51117281597885,131.036,-0.7835619999896721,0
-22.45860949692682,38.32153517117177,47.77303202145874,-21.04003573179928,-15.974922450139392,-70.11281879371836,43.491819279953276,131.04,-0.7795619999896815,0
-22.190694901336016,38.50124071967895,47.29347575675351,-20.96487655082907,-15.489006701570208,-70.84051590482477,43.69037758212755,131.044,-0.7755619999896624,0
-21.999086319885958,38.56823720129098,46.93563076519206,-20.88563417453189,-15.182067726571676,-71.22606507265729,43.788985327163715,131.048,-0.7715619999896717,0
-21.56968379416107,38.126606926124424,45.990630455134834,-20.462884439954532,-14.884519643880033,-70.79270587496475,43.59255637170108,131.052,-0.767561999989681,0
-20.889656377282762,37.378886774456326,44.48238880351696,-19.773370984194695,-14.44518051869816,-70.00045869466821,43.24739099687056,131.056,-0.7635619999896619,0
-20.172201441408756,36.846867703698905,42.95322827024721,-19.152319701179174,-13.812247824385826,-69.72773029690764,43.064403289935164,131.06,-0.7595619999896712,0
-19.672539063204027,36.938887393672445,42.00007793911567,-18.911420452451093,-13.066374441607245,-70.55185113718856,43.263219761662754,131.064,-0.7555619999896805,0
-19.42003083597791,37.5183658156756,41.64723789629445,-19.010485827820162,-12.337907459205145,-72.136812893549,43.73963330458217,131.068,-0.7515619999896614,0
-19.174321894226644,37.98503186866982,41.28039947196351,-19.066611195978183,-11.693171777268637,-73.46597768282022,44.13465120966036,131.072,-0.7475619999896708,0
-18.62192131980352,37.75490931623814,40.146423609113604,-18.66280199554315,-11.087454259895491,-73.64953032033438,44.1203749702248,131.076,-0.7435619999896801,0
-17.733186586032904,36.87056092254775,38.19773402307549,-17.80013848305804,-10.452033446113361,-72.81770731438027,43.73477088396137,131.08,-0.739561999989661,0
-16.80786046947298,35.95500972036557,36.17007109988344,-16.90411460927462,-9.78701578270594,-71.96305399696908,43.33696403817366,131.084,-0.7355619999896703,0
-16.24336339521621,35.676455113909114,35.000773563955306,-16.47348562504791,-9.196654782482712,-72.05549245661335,43.291767581495755,131.088,-0.7315619999896796,0
-16.207236586137164,36.190853170225296,35.054600983034234,-16.666420873124007,-8.807833610106867,-73.22824890290939,43.66428581901784,131.092,-0.7275619999896605,0
-16.555096981744153,37.126742207564575,35.959904589470085,-17.24840150942719,-8.667566376822554,-74.84678076474047,44.231198835699715,131.096,-0.7235619999896699,0
-16.95689663970442,37.956512057023545,36.94485018170914,-17.816538998430218,-8.671258222673,-76.16547219944405,44.708803821519,131.1,-0.7195619999896792,0
-17.160440563077746,38.45303043621478,37.46221865410835,-18.135904064754374,-8.622887064028415,-77.00049614106564,45.004478742603034,131.104,-0.7155619999896601,0
-17.139904677115023,38.79201229879098,37.50407603950056,-18.26487269377576,-8.371144580807877,-77.76925328384893,45.24908689725601,131.108,-0.7115619999896694,0
-16.952811481813146,39.1411826709171,37.22325844599361,-18.305053210843358,-7.884284356914034,-78.76781100930009,45.54551894195994,131.112,-0.7075619999896787,0
-16.51863350862695,39.2400015059239,36.39958441376573,-18.103538635054978,-7.22372432085825,-79.52527091680602,45.73158146165663,131.116,-0.7035619999896596,0
-15.669237271037485,38.54380202311364,34.57317106702275,-17.340790500056624,-6.518150659991526,-79.05694220821857,45.468147549167774,131.12,-0.699561999989669,0
-14.458651704385229,36.87737511818164,31.807133607978134,-15.97439257373128,-5.9572149839772806,-76.91140128154944,44.6171518174835,131.124,-0.6955619999896783,0
-13.295572724890013,34.799632766669106,29.03440254010656,-14.464120049193593,-5.732715323322989,-73.80492571984885,43.46329851047977,131.128,-0.6915619999896876,0
-12.722416042000704,33.34540776680362,27.563993289967872,-13.541588595777462,-5.9059152022895285,-71.33063214744539,42.59115093074163,131.132,-0.6875619999896685,0
-12.908006454370117,33.16789608324106,27.883374155281754,-13.571685119398115,-6.277493940969264,-70.71028767778236,42.41620295399703,131.136,-0.6835619999896778,0
-13.366713397356703,33.871683144785564,28.948953798119536,-14.11940760549738,-6.4423162877634,-71.68189312568992,42.78969347340225,131.14,-0.6795619999896871,0
-13.274223538631265,34.19140204698459,28.845692576132592,-14.200215203499464,-6.104609575293404,-72.49804424051233,43.039997934819255,131.144,-0.675561999989668,0
-12.350680560838898,33.216648864320405,26.807199013612774,-13.280660370178955,-5.481084892962158,-71.51137650159959,42.5999544476463,131.148,-0.6715619999896774,0
-11.308414259519067,31.302743360637724,24.309913424159554,-11.9057279061287,-5.314192276846436,-68.61360981985081,41.52928747754765,131.152,-0.6675619999896867,0
-11.251381080698867,29.719070718470324,23.815740556305016,-11.217781967902285,-6.28052476598206,-65.21263509582094,40.42751163562883,131.156,-0.6635619999896676,0
-12.41968059731873,29.204719492182992,25.97204852979039,-11.65709510512552,-8.221847700059172,-62.62974906888989,39.75160444941986,131.16,-0.6595619999896769,0
-13.715382336209599,29.16189220121897,28.491045935794983,-12.362899274437426,-10.026872981267694,-60.921931582023184,39.374148036923835,131.164,-0.6555619999896862,0
-13.509641396980415,28.141130840007982,27.842657858480983,-11.825119492631428,-10.41800579270693,-58.94030344385552,38.70928142768521,131.168,-0.6515619999896671,0
-11.217559171621525,25.384760471770242,22.70193793620841,-9.40324007257342,-9.092921685633543,-55.75230051393906,37.379323035788765,131.172,-0.6475619999896765,0
-8.082465696016687,21.8129603771299,15.71844607015314,-6.172782305697059,-7.149660127668801,-51.826617525627185,35.70011920772661,131.176,-0.6435619999896858,0
-6.350320889956401,19.48826940777108,11.775139215056099,-4.242423508469415,-6.307688071918424,-48.8875636486556,34.52458749617258,131.18,-0.6395619999896667,0
-7.2411585338845965,19.65138932171928,13.553583734421602,-4.807464641541277,-7.421692483788827,-48.13555904942036,34.40090165249403,131.184,-0.635561999989676,0
-9.667995339824763,21.338469999749417,18.698868544323897,-6.861599388819351,-9.636833940206143,-48.8114206182135,34.94051074299029,131.188,-0.6315619999896853,0
-10.995873449282152,22.03427337535643,21.459234709852623,-7.891377733261687,-10.998804381080145,-48.68288476572336,35.07543224413805,131.192,-0.6275619999896662,0
-9.303524695903253,19.938295649777142,17.64890333852647,-6.077995160619671,-10.060551944883626,-46.1956877615307,34.05056057463346,131.196,-0.6235619999896755,0
-5.037494964371727,15.624387346130945,8.278303435364618,-1.9085519491544698,-7.05592479413229,-42.05171233780442,32.1509932639672,131.2,-0.6195619999896849,0
-0.6503986458892748,11.622280362700376,-1.2532565672230003,2.199321672091155,-3.679626253093338,-38.7421247862283,30.503804217642273,131.204,-0.6155619999896658,0
1.4268987461203095,10.279693509513285,-5.632924353688549,3.9155464387982324,-1.7165858935549418,-38.38613957078762,30.113511123599196,131.208,-0.6115619999896751,0
0.6777651198265149,11.789802467877333,-3.805479580700483,2.8715936863812153,-1.7478414201560966,-40.76375556091005,30.977915287681462,131.212,-0.6075619999896844,0
-1.3448240462066685,14.159979203327955,0.7158019599758694,0.7602004359699747,-2.9580947787178657,-43.44075464303108,32.107691868681705,131.216,-0.6035619999896653,0
-2.590765108056581,15.084094135440056,3.371410273968023,-0.31840940240221777,-4.057118876348598,-43.914825538090824,32.42561451548999,131.22,-0.5995619999896746,0
-2.2582868807421175,13.94203540741236,2.4462947542248834,0.34039524715072766,-4.354462587712845,-41.82513098903272,31.70915504869965,131.224,-0.595561999989684,0
-1.136352799223706,12.037484561214308,-0.20424959346123298,1.7559403431580083,-4.0721526137645885,-39.04710732954096,30.66643743161805,131.228,-0.5915619999896649,0
-0.5771286850380102,11.228057703212897,-1.4915870934220001,2.4035590819902635,-3.8391692004794966,-37.96910311416822,30.245371307904502,131.232,-0.5875619999896742,0
-1.204436131236111,12.29392854725103,-0.009350623491101561,1.6116793800267668,-3.996371848705028,-39.52452599485545,30.82907667100981,131.236,-0.5835619999896835,0
-2.5508895154428743,14.549094742414724,3.164237734762722,-0.07449792172075545,-4.355307016789444,-42.79157154752059,32.05893352429622,131.24,-0.5795619999896644,0
-3.684973973101553,16.707864886823987,5.899956051316691,-1.6021481826028727,-4.4866034780959385,-46.11180649447416,33.27771119013382,131.244,-0.5755619999896737,0
-4.195556083169365,18.205956218516576,7.2588172116739385,-2.507910000466406,-4.1986630896641985,-48.76021458957127,34.19757033268067,131.248,-0.571561999989683,0
-4.458683140502257,19.493952326328728,8.083830700247088,-3.188447685171841,-3.7099633223211685,-51.256243290638004,35.035554412057394,131.252,-0.567561999989664,0
-5.1239325161125695,21.279697801615644,9.814156832213488,-4.299750760891007,-3.444388259084675,-54.34264584486785,36.116862747126866,131.256,-0.5635619999896733,0
-6.4041391373482,23.57973732476869,12.869272018552245,-5.967524986054519,-3.6828831111533216,-57.790587713651036,37.396125604886066,131.26,-0.5595619999896826,0
-7.985209118907028,25.77385359876538,16.486099210648625,-7.75942483395673,-4.403811380241166,-60.63155052383549,38.52004304752635,131.264,-0.5555619999896635,0
-9.321064481927145,27.181187845205848,19.434043711677536,-9.088436924473326,-5.3074172526674905,-62.053025581376524,39.154712683561,131.268,-0.5515619999896728,0
-10.031115903200723,27.623811208695948,20.92714121225016,-9.668318313281944,-5.989160242859662,-62.13898625783928,39.27662829623538,131.272,-0.5475619999896821,0
-10.02812312745684,27.379831628189297,20.862319228892066,-9.565569142146552,-6.145977645459187,-61.60781765128418,39.105336709265266,131.276,-0.543561999989663,0
-9.48476650432493,26.83289933200104,19.66941237661204,-9.035559629927883,-5.761619840515416,-61.08553722952091,38.86517149567592,131.28,-0.5395619999896724,0
-8.616436592485,26.004261134773458,17.774022632835695,-8.207370693488826,-5.117435159120556,-60.35043603799375,38.513394715478825,131.284,-0.5355619999896817,0
-7.591763924694064,24.566851136204264,15.42627001622424,-7.039669506988227,-4.660386810286598,-58.47541485257798,37.774113942118184,131.288,-0.5315619999896626,0
-6.5590667414562995,22.221669833321815,12.843407531748246,-5.491408021161224,-4.791072315801959,-54.62020766308514,36.396677376434354,131.292,-0.5275619999896719,0
-5.6575700846417085,18.99454867685782,10.303462089421233,-3.651034093076026,-5.683371411857376,-48.66802841605616,34.36199323935202,131.296,-0.5235619999896812,0
-4.871246166702321,15.055801335660384,7.816317428900337,-1.5801564699766106,-7.202971810147353,-41.01223388960933,31.794489571874664,131.3,-0.5195619999896621,0
-3.995985936508294,10.493110940780086,5.004727086531484,0.798877507226486,-9.01214854435703,-32.099296848340835,28.81071579466784,131.304,-0.5155619999896714,0
-2.8224771969229923,5.399057514929107,1.4824712699531686,3.5645973174140435,-10.762811808931927,-22.39290694234823,25.532069845906523,131.308,-0.5115619999896808,0
-1.287628113103898,0.023018671072281907,-2.8133274503254517,6.648920479002237,-12.203962921545592,-12.518382196393901,22.151361531293976,131.312,-0.5075619999896617,0
0.5648573780327901,-5.301895127720969,-7.716827934015181,9.889437952103346,-13.1758231652451,-3.151590397919203,18.89184129476392,131.316,-0.503561999989671,0
2.7258349160935684,-10.450364549454113,-13.179884631272595,13.229124971935018,-13.608275334491756,5.444110823491513,15.839453803697952,131.32,-0.4995619999896803,0
5.257785727524352,-15.662818601056964,-19.382589123651808,16.802479346197167,-13.574219300748641,13.718007156159834,12.841354795575615,131.324,-0.4955619999896612,0
8.219355206412857,-21.4393994299597,-26.560328231090182,20.84945304923181,-13.323113680714844,22.69355256796892,9.560480518150678,131.328,-0.49156199998967054,0
11.442326153070296,-28.00618544129598,-34.43937603245452,25.369771759548673,-13.234746669991113,33.07592828528199,5.792281945840152,131.332,-0.48756199998967986,0
14.465050176989292,-34.93151718187853,-42.0141951400134,29.926809772612664,-13.657461100603063,44.49380034956707,1.7175131233253984,131.336,-0.48356199998966076,0
16.79346091357507,-41.33295176575039,-48.10699212132902,33.87908410039226,-14.686731367789806,55.627925157965635,-2.173794917064324,131.34,-0.4795619999896701,0
18.39808462189988,-46.70886628136218,-52.53896843054207,37.00231936787255,-16.032119507552846,65.41526618450237,-5.535715954818255,131.344,-0.4755619999896794,0
19.830280022986678,-51.39613213963695,-56.46787164822187,39.74396781064192,-17.159744913421044,73.90760278154217,-8.4581019138913,131.348,-0.4715619999896603,0
21.8934990704521,-56.36773702279847,-61.697337823515966,42.95579148894944,-17.609597580970192,82.2373171965476,-11.411935328665095,131.352,-0.46756199998966963,0
25.027353964291574,-62.37730002377491,-69.26771801048521,47.195494823106394,-17.27590717856813,91.50905009514805,-14.8109736697183,131.356,-0.46356199998967895,0
28.932045308545035,-69.26151143536988,-78.55429265205224,52.228006203970885,-16.462070427046722,101.73819381864593,-18.6203708166935,131.36,-0.45956199998965985,0
32.65937099946356,-75.85441870294696,-87.42421025099756,57.04078891787957,-15.699317556519437,111.54961395859497,-22.27182736547471,131.364,-0.4555619999896692,0
35.31300133914842,-80.91659124799423,-93.82811726078744,60.61983178778909,-15.39928306754288,119.34247204741618,-25.131313598029653,131.368,-0.4515619999896785,0
36.705576545568334,-84.1296963277914,-97.3233131057345,62.72862757718486,-15.60892842615464,124.65223616089588,-27.024502423969015,131.372,-0.4475619999896594,0
37.4397878935251,-86.31230931702095,-99.28419947111226,64.04285812454481,-16.041698385212662,128.5228249406602,-28.367263785384747,131.376,-0.4435619999896687,0
38.28238352459926,-88.58153422183422,-101.47760133984194,65.45349505207872,-16.382969017595265,132.44829684714918,-29.742070844556295,131.38,-0.43956199998967804,0
39.55773149052582,-91.50472155117913,-104.67387200223688,67.37671909244612,-16.5621457122487,137.26846858432273,-31.462179901630517,131.384,-0.43556199998968737,0
40.96847410677043,-94.80647525617235,-108.22596257221171,69.53238605335065,-16.80534823515451,142.74995504176377,-33.41302913834673,131.388,-0.43156199998966827,0
41.94622857766114,-97.78902274031587,-110.85564817253035,71.31401987629722,-17.431762855175243,148.07094881666902,-35.254763502606444,131.392,-0.4275619999896776,0
42.192289800236914,-99.99742395277691,-111.86984654267005,72.36634092117518,-18.550935386642895,152.6061141305247,-36.746538969847364,131.396,-0.4235619999896869,0
42.03429478296819,-101.67833054441066,-111.96776641034113,72.97449351531405,-19.876265536559334,156.48810152699087,-37.97452733396251,131.4,-0.4195619999896678,0
42.19102742088036,-103.5277508261644,-112.72080543194198,73.82820992207277,-20.88116043742206,160.34751108749998,-39.23703173492521,131.404,-0.41556199998967713,0
43.1275576890177,-105.96298960150648,-115.13771019873886,75.36007956378218,-21.203117404877684,164.51994397773808,-40.70376402541533,131.408,-0.41156199998968646,0
44.62501498581218,-108.71010825756534,-118.72499945518871,77.33439088035547,-20.961589241817677,168.67744697681383,-42.24015588841028,131.412,-0.40756199998966736,0
45.93865655620946,-111.04407353260467,-121.85358452332915,79.03489093230525,-20.699621882450067,172.15812053665653,-43.534388086787686,131.416,-0.4035619999896767,0
46.315566390910895,-112.32844387424947,-122.89983785466978,79.77746519283464,-21.029901470761537,174.50447255481157,-44.33932093887679,131.42,-0.399561999989686,0
45.46211001348862,-112.35063929840662,-121.23916386026495,79.31007256244438,-22.214873714880298,175.61619709960632,-44.583702801987805,131.424,-0.3955619999896669,0
43.74233197464739,-111.41647275891303,-117.65614443033088,77.96269795299702,-23.957034124857227,175.71029971331347,-44.38567832685712,131.428,-0.3915619999896762,0
41.911525601231865,-110.0827022589741,-113.7597851496718,76.38777145460641,-25.587879779925313,175.06661454956685,-43.935544416834,131.432,-0.38756199998968555,0
40.616736026752065,-108.81837746993196,-110.92657671349076,75.14093853990947,-26.52949730584359,173.90751935894662,-43.39074243634191,131.436,-0.38356199998966645,0
40.00573749217414,-107.7678816619147,-109.47989377988429,74.36453577734193,-26.67447666721081,172.36549007764785,-42.813511238154334,131.44,-0.37956199998967577,0
39.78494812181826,-106.86494035602868,-108.83061141685087,73.86716413382709,-26.38169000903665,170.66091278783614,-42.23578326156528,131.444,-0.3755619999896851,0
39.516774123290304,-105.94934552270114,-108.08577024316408,73.33808970886025,-26.145535357116717,168.98761634022696,-41.661829049395806,131.448,-0.371561999989666,0
39.021809915971886,-104.97745082522843,-106.8845999933348,72.65904648688998,-26.183241314712188,167.4733785611661,-41.10894283075269,131.452,-0.3675619999896753,0
38.51125058309586,-104.06832534295805,-105.6681602300399,71.99729918580188,-26.28373327554241,166.1161801296768,-40.604511050034326,131.456,-0.36356199998968464,0
38.415972147191404,-103.44973511501243,-105.33262802919789,71.68781887116322,-26.00638436298159,164.87867279041095,-40.19371630157386,131.46,-0.35956199998966554,0
38.918864760035305,-103.13287850145585,-106.2377319255985,71.83737459151173,-25.107785952236004,163.55759998672426,-39.835442958981176,131.464,-0.35556199998967486,0
39.772902309719555,-102.89477447638633,-107.84734656555169,72.215643303232,-23.7796101468103,161.9717974382848,-39.438611862488216,131.468,-0.3515619999896842,0
40.44705383160623,-102.42138201936349,-109.04892538776745,72.39598258519275,-22.54292060079008,160.09421851020159,-38.924026919079644,131.472,-0.3475619999896651,0
40.499177292108335,-101.54840683612133,-108.93964253439067,72.0634258110166,-21.895657106419897,158.11539868156427,-38.294295307757366,131.476,-0.3435619999896744,0
39.781943654489325,-100.25705209648225,-107.22735177048942,71.12791404556924,-22.027452112316467,156.17764090136816,-37.57564262213874,131.48,-0.3395619999896837,0
38.52765860618757,-98.7098749202008,-104.4048356738122,69.78651720730889,-22.726965695856233,154.347972908928,-36.820472432555185,131.484,-0.3355619999896646,0
37.176166555082744,-97.11539310444842,-101.38112550162751,68.37124017035694,-23.52857721600169,152.5356759483598,-36.05798685172178,131.488,-0.33156199998967395,0
36.14494954044603,-95.60175271402481,-99.00216963177998,67.1683031061461,-23.944320537375415,150.50168026234311,-35.26669002575503,131.492,-0.3275619999896833,0
35.6762447385661,-94.2121160812319,-97.75127542412235,66.33085799349979,-23.670487731286652,148.03888398163468,-34.4121074770597,131.496,-0.3235619999896642,0
35.85248657313768,-93.08193370311527,-97.82210770439455,65.96105353111071,-22.683376563095973,145.34156614957533,-33.56768828321794,131.5,-0.3195619999896735,0
36.50348706449989,-92.34480251055722,-98.91473685168624,66.01920085835926,-21.30447982319972,142.91460808742247,-32.87327682483845,131.504,-0.3155619999896828,0
37.07591858955124,-91.77979544026216,-99.89560022613726,66.1047826770869,-20.146851336957244,140.96287718625135,-32.321331449532714,131.508,-0.3115619999896637,0
36.794499220150826,-90.74657879971265,-99.09646868874833,65.51958239332221,-19.851280186279322,139.04820723375303,-31.66796117248578,131.512,-0.30756199998967304,0
35.18519238367191,-88.65139902863598,-95.44843705500018,63.75290275205706,-20.67618470559266,136.45932279099796,-30.621397137498082,131.516,-0.30356199998968236,0
32.5352799396335,-85.55519989757381,-89.52704329279138,60.99041627387724,-22.267815904537443,132.97199811620177,-29.147635234809858,131.52,-0.29956199998966326,0
29.817176978151014,-82.29672335547654,-83.4333052034645,58.122621110151435,-23.845922668736993,129.21383737538594,-27.57768423601026,131.524,-0.2955619999896726,0
28.11786724826509,-80.05279345401394,-79.57361920841605,56.24405649239724,-24.696135934571323,126.41094328663193,-26.450318430292832,131.528,-0.2915619999896819,0
27.878630559214123,-79.46175889958616,-78.96372618839722,55.86560286961278,-24.634369833995375,125.41316264201048,-26.097541148858596,131.532,-0.2875619999896628,0
28.57647456024506,-80.06589869521525,-80.47203855155722,56.50558178460332,-24.07589793156003,125.8684345520405,-26.33665571855635,131.536,-0.28356199998967213,0
29.089098974737002,-80.53248613398677,-81.5855301845276,56.985143833910506,-23.680689803106535,126.25284834993695,-26.52838503696354,131.54,-0.27956199998968145,0
28.575179083178032,-79.73987064834617,-80.390695437431,56.36978868191323,-23.8626364266395,125.15527022540664,-26.107035478081254,131.544,-0.27556199998966235,0
27.03125335643897,-77.64234381873659,-76.86972745062504,54.63864686408344,-24.596336694778564,122.4798015436491,-25.04129380003135,131.548,-0.2715619999896717,0
25.2493658301754,-75.38987079619675,-72.84677541076353,52.71042975589072,-25.55415296415639,119.7610364232107,-23.930032838160237,131.552,-0.267561999989681,0
24.205134343461705,-74.458323807734,-70.58312946235453,51.74137975886837,-26.37167358003751,119.01942254556576,-23.55280979776982,131.556,-0.2635619999896619,0
24.4561623855448,-75.60690503029055,-71.35082212702768,52.35740311147778,-26.785010829676057,121.2248710946809,-24.295698604709173,131.56,-0.2595619999896712,0
25.799702801665223,-78.25986740309519,-74.61488752548965,54.20675614546654,-26.692444178897922,125.36766615241243,-25.806925992061394,131.564,-0.25556199998968054,0
27.53830241914294,-81.06701642865013,-78.68742455349206,56.34059628490874,-26.15983508085275,129.35641221086428,-27.32103485192089,131.568,-0.25156199998966144,0
28.97434026331986,-82.94704375804103,-81.94520522689582,57.92138369767013,-25.43062404625863,131.68942388615477,-28.26227481594925,131.572,-0.24756199998967077,0
29.818000219249452,-83.80289153986168,-83.79901419791773,58.74706903221712,-24.838215528434745,132.51490772879575,-28.639855714048107,131.576,-0.2435619999896801,0
30.212929338728248,-84.26386744743975,-84.68139529937888,59.15858276742423,-24.60070012544638,133.03361995139394,-28.859169185281374,131.58,-0.239561999989661,0
30.579300724098307,-85.00799030100148,-85.57647670359611,59.671453797747915,-24.58910047723154,134.20866985874468,-29.285856898761736,131.584,-0.2355619999896703,0
31.201193410473817,-86.04078137179395,-87.040146251478,60.44660521354954,-24.417504622554564,135.69831386008735,-29.847680238284116,131.588,-0.23156199998967963,0
31.86880674325793,-86.59740453965794,-88.4779583712179,61.050017095393116,-23.86914712202279,136.08706644310513,-30.0613802488575,131.592,-0.22756199998966053,0
31.94454482836726,-85.80756243257215,-88.4348704657506,60.765088302982676,-23.244333217404066,134.2610917281047,-29.48395874372775,131.596,-0.22356199998966986,0
30.996425748017376,-83.68888631792855,-86.07186911351319,59.35789550566929,-23.147062726367647,130.79712007083413,-28.243623166711334,131.6,-0.21956199998967918,0
29.365710136678988,-81.36564665376054,-82.32691390040397,57.484778157075624,-23.85090357733265,127.73490798992395,-27.041932152181364,131.604,-0.21556199998966008,0
28.067386257145934,-80.18741728836929,-79.50761887277321,56.27163995904311,-24.854153514149537,126.76896916684021,-26.558805707737154,131.608,-0.2115619999896694,0
28.071239189454573,-80.6304569130513,-79.62224086145244,56.45733775324621,-25.141085219157066,127.73548199061182,-26.870275939651687,131.612,-0.20756199998967872,0
29.522855758174302,-81.94597727901036,-82.77396866816834,57.81295589098631,-24.01818003508737,128.81147401788448,-27.409159684778935,131.616,-0.20356199998965963,0
31.539823792621902,-82.78585721812378,-86.91434234700567,59.28722576942154,-21.806298614058214,128.14047985943733,-27.461031242293007,131.62,-0.19956199998966895,0
32.81551766521027,-82.22220224661929,-89.26837705076686,59.76608419106599,-19.685188077747185,125.31573098365855,-26.721565464801387,131.624,-0.19556199998967827,0
32.69609759704272,-80.50079839314348,-88.6191229801125,58.98623964400414,-18.71356263060123,121.690505847699,-25.539359084888524,131.628,-0.1915619999896876,0
31.67443165184471,-78.73059546114678,-86.19679026284611,57.682345178405036,-18.9469880190183,119.08213030917084,-24.564533396409285,131.632,-0.1875619999896685,0
30.842825848541196,-77.83367965238308,-84.35658449897525,56.84637712286836,-19.4957796502429,118.15159503947991,-24.154754209288093,131.636,-0.18356199998967782,0
30.813568273414138,-77.67995201901789,-84.26230833115987,56.7663514836705,-19.43450618232183,117.8510085491814,-24.054161773766296,131.64,-0.17956199998968714,0
31.265156482755632,-77.37093953954432,-85.0691567059491,56.89050748393084,-18.611434532056837,116.61103775363128,-23.715170942767326,131.644,-0.17556199998966804,0
31.368288251307092,-76.13876907837944,-84.97261554188402,56.4376243341203,-17.657310005885808,113.78118886429166,-22.81840682356962,131.648,-0.17156199998967736,0
30.715974606465068,-74.14854844426088,-83.21811142197328,55.24883312824684,-17.23913089082586,110.23038596180864,-21.589402939460363,131.652,-0.16756199998968668,0
29.743800503497017,-72.34847636697643,-80.88517157136728,53.96020150093511,-17.384988045384763,107.49487890347088,-20.580244924174405,131.656,-0.16356199998966758,0
29.27591226062018,-71.62905820915829,-79.79789036416646,53.400876200485904,-17.552090795053132,106.50044033421545,-20.198189426943504,131.66,-0.1595619999896769,0
29.592025743273414,-71.91429801876701,-80.48393224115752,53.69557218099038,-17.306744103466436,106.73204453915154,-20.31466810002422,131.664,-0.15556199998968623,0
30.148189779700502,-72.27332238375386,-81.65641558671516,54.154885520310984,-16.780885435492856,106.82640613372807,-20.418858027777567,131.668,-0.15156199998966713,0
30.126452714159765,-71.71566837673964,-81.47917488304104,53.911717426767424,-16.442881905936904,105.63089126268711,-20.031336237896625,131.672,-0.14756199998967645,0
29.255561916860415,-69.96343770444922,-79.35551625179421,52.6994646669578,-16.481405380470626,102.87411253208442,-19.0287797791885,131.676,-0.14356199998968577,0
27.9931979216576,-67.4352886655273,-76.28008848727383,50.94715098180989,-16.54497893580521,98.903842760261,-17.58383557512207,131.68,-0.13956199998966667,0
27.07937037950961,-64.84901974001245,-73.8709917940918,49.36538895912655,-16.092275240067814,94.37201563703982,-16.004488201503815,131.684,-0.135561999989676,0
26.836589298590805,-62.700977407127056,-72.87778780594168,48.339905605791266,-15.008415538534853,89.96509429643486,-14.55440844921324,131.688,-0.13156199998968532,0
26.90930711088749,-61.05177780945254,-72.62106244004046,47.69726827593775,-13.820937779400005,86.2588418680961,-13.371639226028215,131.692,-0.12756199998966622,0
26.640611744045952,-59.67503401863294,-71.76372509214761,46.97685398305685,-13.28133854169754,83.57518023425358,-12.472548308878169,131.696,-0.12356199998967554,0
25.745333179818036,-58.41958321959077,-69.71255073562389,45.95679278744441,-13.680965197369545,81.93791003587744,-11.82693685055556,131.7,-0.11956199998968486,0
24.493791598832043,-57.2496579663942,-66.98658727573762,44.77321910450868,-14.625540354928347,80.93190505225017,-11.337130158530643,131.704,-0.11556199998966576,0
23.326540041339612,-56.01906799817663,-64.41050197296497,43.61158204268014,-15.414517216404924,79.68790835004523,-10.781943246518418,131.708,-0.11156199998967509,0
22.47540710128993,-54.505863901489164,-62.38319524258354,42.50938845398749,-15.583601522791012,77.4305567931714,-9.942691681585096,131.712,-0.10756199998968441,0
21.979890519860223,-52.73517087753266,-60.98784474475023,41.49910378819955,-15.095202374701412,74.1657361025256,-8.826512413601032,131.716,-0.10356199998966531,0
21.825839733228282,-51.060283904864264,-60.2822327677351,40.71919213195263,-14.201746638919927,70.68562969093662,-7.686398244598179,131.72,-0.09956199998967463,0
21.90107667397557,-49.78008531908185,-60.11962752491642,40.23083442400581,-13.254196041780476,67.78523055959717,-6.76323277179973,131.724,-0.09556199998968395,0
21.891780084436984,-48.7963235335612,-59.863664448900614,39.818081786876604,-12.618085603460367,65.64002889738431,-6.071817182775602,131.728,-0.09156199998966486,0
21.310138650403374,-47.58379696555359,-58.43512035709924,38.990945159145014,-12.615937524892635,63.70619916911633,-5.37242813111916,131.732,-0.08756199998967418,0
19.806309940052493,-45.59601649108017,-55.018956245771854,37.32766101262153,-13.367038601038931,61.22139163363214,-4.373351248415127,131.736,-0.0835619999896835,0
17.554005170092772,-42.73390453729778,-49.9303242060459,34.88418663157208,-14.567832572186498,57.752016045885156,-2.9581465320197715,131.74,-0.0795619999896644,0
15.358918720741778,-39.57817986895518,-44.88241044002529,32.35102378007983,-15.496506029945746,53.567658238350774,-1.3205044002460993,131.744,-0.07556199998967372,0
14.120795417634223,-36.9352860662586,-41.82656467555333,30.564709165972207,-15.45115657950577,49.31562996811182,0.21187276959953735,131.748,-0.07156199998968304,0
14.12065675155665,-35.23125056751305,-41.41435949075397,29.858669365637653,-14.327417836057414,45.57990620184375,1.4137955752864662,131.752,-0.06756199998966395,0
14.726116467014833,-34.18878179056249,-42.34427561979204,29.76488790873832,-12.809579339161896,42.54025707048565,2.3113753032777162,131.756,-0.06356199998967327,0
14.918575617950893,-33.171936390969044,-42.474164007217325,29.451093746444247,-11.874983142370532,40.071216912813746,3.080197263348128,131.76,-0.05956199998968259,0
14.054269061990658,-31.628153659638336,-40.41374885178415,28.328875356670615,-12.041963526832847,37.76323434438189,3.937487275212285,131.764,-0.05556199998966349,0
12.368393040824827,-29.515230211063557,-36.611956488090314,26.51208687473066,-12.96016312296702,35.23082342138141,4.976046485184105,131.768,-0.05156199998967281,0
10.688929498681556,-27.21807571731861,-32.77814586400848,24.62255444619679,-13.748056300119114,32.2865203277825,6.146273608785459,131.772,-0.047561999989682135,0
9.693687884613054,-25.170536009904275,-30.340352763575467,23.218518435553143,-13.76232364758884,29.037202579801296,7.323803521101203,131.776,-0.043561999989663036,0
9.300672196252135,-23.407030849325857,-29.146832738064045,22.268450267505685,-13.138107345337477,25.660465505734912,8.462382963234765,131.78,-0.03956199998967236,0
8.868276069490648,-21.65889791851034,-27.880153911742315,21.302759775268417,-12.578031934581318,22.36648243100974,9.579565489065274,131.784,-0.03556199998968168,0
7.825459612267093,-19.64721414440071,-25.3581573844972,19.887011676447273,-12.681187461253975,19.25503371765354,10.719053983784075,131.788,-0.03156199998966258,0
6.164534529802433,-17.33258436322156,-21.556311361118095,18.00059170140403,-13.432132950230498,16.249326649764214,11.906575793599593,131.792,-0.027561999989671904,0
4.3716419446911905,-14.917543229015815,-17.472576945161464,15.998879033118339,-14.297815425649585,13.187858034079138,13.129556587938305,131.796,-0.023561999989681226,0
3.015241746577702,-12.76804223838502,-14.305114891583086,14.350923104411477,-14.74008400833055,10.16486069051916,14.282215596790376,131.8,-0.019561999989662127,0
2.272806723167172,-11.144582905568203,-12.4633451359965,13.263751232026877,-14.687391447417843,7.530393629992244,15.228367903796327,131.804,-0.015561999989671449,0
1.7895160913165995,-9.92964973953436,-11.226210717974078,12.490538728911869,-14.548788967684374,5.468782140923487,15.955812464040921,131.808,-0.011561999989680771,0
1.0620735743553735,-8.744413840657755,-9.519644340835047,11.593289929957795,-14.764575959224443,3.7763935418923213,16.59687709451185,131.812,-0.007561999989661672,0
-0.013993924649595828,-7.35618481228038,-7.0834524677562225,10.41726390381256,-15.324539564136447,2.0732131301661614,17.287693734843984,131.816,-0.003561999989670994,0
-0.9996869664992888,-5.921527631904167,-4.812457781728637,9.272470218939633,-15.729951368751374,0.15567422272885117,18.03547930721503,131.82,0.0004380000103196835,0
-1.3266924259154016,-4.778671511172761,-3.897832937072961,8.616391327104534,-15.424576991604859,-1.9425853852810662,18.7539679239426,131.824,0.004438000010338783,0
-0.7954795608634203,-4.162933588326004,-4.785969306481409,8.657938571176814,-14.29001058431589,-3.954195799135469,19.330650267945455,131.828,0.00843800001032946,0
0.21407219517141088,-3.9845447219600487,-6.713600140910324,9.147788982687482,-12.78796658003043,-5.60278812830813,19.7270383933501,131.832,0.012438000010320138,0
1.0025853232439224,-3.8935225714506916,-8.230859648878397,9.550401817166865,-11.64665413710622,-6.7845139459298975,20.002563162954456,131.836,0.016438000010339238,0
1.0443363771169196,-3.518737213761922,-8.221761418165926,9.41844720538497,-11.342204716447792,-7.658191595613941,20.278111361487717,131.84,0.020438000010329915,0
0.39056606473110206,-2.808915185542731,-6.773937999408507,8.759297025397863,-11.770534265569905,-8.400057419393338,20.603581779785554,131.844,0.024438000010320593,0
-0.49183254718277264,-1.9240103991609638,-4.837482708617032,7.89994122912894,-12.396899464446935,-9.240992512356534,20.991276402635343,131.848,0.028438000010339692,0
-1.1714466543840765,-0.9842653800534621,-3.283627683627114,7.131104873604919,-12.70901818480791,-10.454746343343569,21.471999372611272,131.852,0.03243800001033037,0
-1.6228355936608252,0.13601104689245735,-2.1316512068233378,6.414922146213242,-12.589102004249723,-12.348570806065418,22.141226417693645,131.856,0.03643800001032105,0
-2.1229908544734912,1.6198689804432587,-0.7965851781207501,5.520879633278989,-12.296251330184136,-14.978761521828421,23.053840270884624,131.86,0.04043800001034015,0
-2.9632479018329487,3.5550654979825542,1.3115033122721977,4.249932750350268,-12.172088581190701,-18.17482859236547,24.193663514784134,131.864,0.044438000010330825,0
-4.097463830039834,5.70549806075336,4.045462741969419,2.725663238019304,-12.309064536143133,-21.47662061724052,25.406524942681425,131.868,0.0484380000103215,0
-5.147325239325027,7.593860259790781,6.551399954214594,1.3570718045937813,-12.503219788391398,-24.308926169092235,26.457139178209534,131.872,0.0524380000103406,0
-5.686857261262622,8.735997955923313,7.880726055575992,0.5826112581489118,-12.48975397398335,-26.140888019208614,27.118163984806372,131.876,0.05643800001033128,0
-5.588532075308437,8.933608607388665,7.736555124401687,0.5556502772674715,-12.22458416861964,-26.696599695059408,27.283901929929673,131.88,0.06043800001032196,0
-4.985024757111225,8.203314158103938,6.3819015140338,1.1952140364513093,-11.878682535813791,-25.847243013578893,26.93052059791486,131.884,0.06443800001031263,0
-4.070059500446859,6.707480305888493,4.23418626244238,2.3258566363586537,-11.610608989788858,-23.70748308191637,26.12062836746257,131.888,0.06843800001033173,0
-2.9720909619544273,4.7889769274019205,1.6270523642968506,3.733799244655689,-11.370365287856037,-20.86901870748236,25.061646420938356,131.892,0.07243800001032241,0
-1.7895666299284871,2.9776866678263385,-1.1192258657769418,5.144542415681166,-10.943456961495697,-18.370928969842733,24.10094934353635,131.896,0.07643800001031309,0
-0.6185652532431128,1.6931299840759464,-3.7156771667862483,6.330631246577175,-10.184932794809772,-17.013287388254835,23.508701372440814,131.9,0.08043800001033219,0
0.42184711351360554,0.9525676533443024,-5.925699040438944,7.218425813317616,-9.246681735875942,-16.68562771782562,23.26516791396493,131.904,0.08443800001032287,0
1.1901765387820786,0.39378198567790645,-7.5606426737434065,7.878975572322362,-8.561639979594089,-16.417585889752235,23.07693444630725,131.908,0.08843800001031354,0
1.6119078339824624,-0.4513849694257421,-8.588219091245016,8.464622149876483,-8.5407716101885,-15.08996493101151,22.593810618011744,131.912,0.09243800001033264,0
1.760555947802321,-1.7825355869912312,-9.200189445697758,9.099110810158766,-9.21491813115262,-12.35673030401684,21.694706709897286,131.916,0.09643800001032332,0
1.7976754399300043,-3.2983397946207824,-9.639082081344196,9.747819413945129,-10.163794069523664,-9.07974465197383,20.635465743587282,131.92,0.100438000010314,0
1.835137160679192,-4.3286954806203095,-9.961290187571548,10.19560336968782,-10.792013945818992,-6.867473804150258,19.91873288779403,131.924,0.1044380000103331,0
1.9557890000610212,-4.455336640530463,-10.227429984818826,10.315443867452155,-10.710094336676145,-6.74011173455111,19.861739829063332,131.928,0.10843800001032378,0
2.223186462431112,-3.8866628485784265,-10.611947348822387,10.229169187578233,-9.968336352135976,-8.319931620172111,20.334522519699526,131.932,0.11243800001031445,0
2.642403359742851,-3.2745615070817973,-11.282334536362288,10.209682128402694,-8.98974703010526,-10.18406728690346,20.87862487230723,131.936,0.11643800001033355,0
3.114419109179546,-3.120642168920738,-12.166551990353417,10.409498605396717,-8.240957998328742,-11.109459201868269,21.113693644894845,131.94,0.12043800001032423,0
3.574323661863389,-3.50393163182705,-13.156992228807507,10.825111382023083,-7.863103123391365,-10.841998610610867,20.966590550750286,131.944,0.12443800001031491,0
4.074292247953939,-4.1193640678338275,-14.281760183191611,11.359270926819889,-7.583423293613791,-10.115495666582877,20.666480036448252,131.948,0.128438000010334,0
4.803787331075759,-4.68306891819532,-15.842084129437351,12.0001727357049,-6.954879069432464,-9.788297126264327,20.46436917654878,131.952,0.13243800001032469,0
5.917330386799306,-5.168243379355648,-18.13312744319688,12.823000747152296,-5.747899008868547,-10.111636636359732,20.420575333829177,131.956,0.13643800001031536,0
7.3284475656870605,-5.742745116724733,-21.02666178568303,13.849007655970558,-4.191777199158311,-10.609794430491242,20.393523310399697,131.96,0.14043800001033446,0
8.554326998436595,-6.320160791795743,-23.55929634899901,14.772781133458473,-2.891591270993931,-10.870831963347886,20.314772243241517,131.964,0.14443800001032514,0
9.013425299126972,-6.531620267789093,-24.506624418965604,15.116756488926356,-2.4015082751728833,-10.979084049596999,20.2886552234713,131.968,0.14843800001031582,0
8.512007565250899,-6.085825470310391,-23.420035868254907,14.652066637955185,-2.7950630191978263,-11.331871459080629,20.468721613637697,131.972,0.15243800001033492,0
7.512361153472148,-5.208209849377426,-21.25646222669298,13.730257028943516,-3.5870161985421984,-12.01078227338917,20.819852365586122,131.976,0.1564380000103256,0
6.782147159930554,-4.500014917260771,-19.659805776144733,13.029093181456014,-4.121245083929302,-12.653862772041794,21.123688207990032,131.98,0.16043800001031627,0
6.8283123456887616,-4.511130848279533,-19.75261240336442,13.05947799212382,-4.0652711312072185,-12.686995677488552,21.12821972252713,131.984,0.16443800001033537,0
7.516331679043234,-5.2659157966833865,-21.27816299172509,13.756381165925653,-3.61963252290522,-11.88921448161755,20.780212947962383,131.988,0.16843800001032605,0
8.227979811481845,-6.2325827747482725,-22.901060042069208,14.554259451840759,-3.2813428783857983,-10.656338959752345,20.289085391633073,131.992,0.17243800001031673,0
8.411432935597254,-6.755788800123409,-23.38566057908406,14.873461780285362,-3.374866612560189,-9.737780444444287,19.969201720329398,131.996,0.17643800001033583,0
8.095196587902693,-6.649629830441448,-22.74266995849121,14.652888327756656,-3.7384979477316427,-9.576618026898974,19.95933084790397,132.0,0.1804380000103265,0
7.783159569177207,-6.233741150766088,-22.0330026509181,14.306342401535334,-3.8920827039134385,-10.099732078468604,20.16905661335372,132.004,0.18443800001031718,0
7.850855999185035,-5.814191654061352,-22.063731303946348,14.17033096245489,-3.522529714790179,-11.103867326752097,20.483133037910065,132.008,0.18843800001033628,0
8.117466502523802,-5.289079569934449,-22.45724307005082,14.101663944166345,-2.8105828258235532,-12.587203080329061,20.92497809944772,132.012,0.19243800001032696,0
8.034386835698735,-4.312712354015179,-22.059034982187693,13.650772774669027,-2.2805273211807644,-14.62428895653658,21.591404003552462,132.016,0.19643800001031764,0
7.236447497579589,-2.769059001868669,-20.1282071192327,12.565668831523363,-2.3565845995874457,-17.014654761326828,22.46638915291271,132.02,0.20043800001033674,0
5.918435129353095,-1.0212727800323347,-17.13279303092427,11.105575294197612,-3.0111710721497804,-19.204755749999315,23.345982209555018,132.024,0.20443800001032741,0
4.767153620232422,0.20267451460088992,-14.589488800442279,9.955608225800361,-3.7826297301460783,-20.454081438232915,23.90076360818762,132.028,0.2084380000103181,0
4.437512100587245,0.3579098522955735,-13.908466079862018,9.7072172676274,-4.132274142499795,-20.383815701255383,23.921916703107048,132.032,0.2124380000103372,0
5.052953109300041,-0.45262625239691273,-15.305813212650376,10.386688247545054,-3.8229329101825282,-19.373403254389103,23.515134272773917,132.036,0.21643800001032787,0
6.1577454932964395,-1.4974617295286599,-17.71506703163017,11.436490841443483,-2.9970875490146374,-18.458852293769972,23.074232269203605,132.04,0.22043800001031855,0
7.185131048519755,-2.042238449810803,-19.852329831680304,12.235899230162431,-1.9475658668008418,-18.544203268373224,22.96530713798305,132.044,0.22443800001033765,0
7.832428398094112,-1.799148361795471,-21.057159816710875,12.49665420962271,-0.8996013631854106,-19.883421956256807,23.31024889023183,132.048,0.22843800001032832,0
8.147131385300117,-1.0402939460672465,-21.48804833202138,12.358006275367902,0.03246326121626954,-21.939114063523224,23.92985541972764,132.052,0.232438000010319,0
8.32736369023433,-0.327846505063154,-21.66765392087846,12.163492969434445,0.7495215144717194,-23.725567926547036,24.480690178348233,132.056,0.2364380000103381,0
8.580590473443639,-0.2478173669960755,-22.142633811964096,12.271744961750585,1.1495526059290313,-24.216441172970082,24.60500431080707,132.06,0.24043800001032878,0
8.964386355097977,-0.9959761169677642,-23.072705364970428,12.796018221832613,1.1823842710369181,-23.054246960250424,24.18013959422118,132.064,0.24443800001031946,0
9.429320402274657,-2.306804651684779,-24.297187536306335,13.598708374661674,0.9553600556148005,-20.759531277751673,23.380134633191737,132.068,0.24843800001033856,0
9.860239440116292,-3.598384103090267,-25.45061543145268,14.3744291584259,0.6943876296729113,-18.464647902713853,22.584591209041793,132.072,0.25243800001032923,0
10.15396690908328,-4.366900268316751,-26.209784874976684,14.856840171615245,0.5902826172972186,-17.145633412601146,22.121228857898945,132.076,0.2564380000103199,0
10.21167234552752,-4.409013155888444,-26.332612546328985,14.906510983937377,0.6416369249949706,-17.125183668399476,22.106989116157163,132.08,0.260438000010339,0
10.074262500883451,-3.995435579028802,-25.964395133244903,14.658437997450665,0.7259916463717799,-17.86074618816915,22.361884755737048,132.084,0.2644380000103297,0
9.950236644108365,-3.659456228300715,-25.641063356437954,14.449986965720091,0.7775182636569908,-18.442854836629188,22.565632547882544,132.088,0.26843800001032037,0
10.054133440164161,-3.7624796895617623,-25.868786133954817,14.550686554182448,0.8520394160379723,-18.346401729473225,22.52080814260534,132.092,0.27243800001033947,0
10.32041462321022,-4.135659228180931,-26.47880854986839,14.85398755477815,0.9710494557330301,-17.85992903823534,22.328945182563388,132.096,0.27643800001033014,0
10.3734705887143,-4.267963262407074,-26.61436280722716,14.938427162818984,0.9565407294028251,-17.63595448916199,22.249842077860215,132.1,0.2804380000103208,0
9.803226752451579,-3.790924424548875,-25.385865278804204,14.422359325191906,0.4892133094511554,-17.971511098480555,22.433501414739066,132.104,0.2844380000103399,0
8.55752986942456,-2.8250137926196595,-22.72062991256438,13.326570362248834,-0.5819088035753361,-18.537518275658623,22.780970552744744,132.108,0.2884380000103306,0
7.10348290092309,-1.9081115874933974,-19.66051987846717,12.134737971222178,-1.971062920348832,-18.73655978303533,23.038033297199522,132.112,0.2924380000103213,0
6.119597717135905,-1.51046441515957,-17.643741706449276,11.42057518673887,-3.0579752302448813,-18.382828641789118,23.0548370897681,132.116,0.2964380000103404,0
5.903135028783725,-1.5460669797703837,-17.229789616181087,11.314447616092506,-3.3782898428455224,-18.035148697577835,22.971712491498614,132.12,0.30043800001033105,0
6.071179721910658,-1.3941164281374865,-17.52109849449496,11.34533592595304,-3.047630633136424,-18.57759848995577,23.123928397860958,132.124,0.30443800001032173,0
5.990812703861379,-0.6110114594874344,-17.174905115254234,10.97602588925246,-2.6413250873772647,-20.194358594520942,23.654761663526088,132.128,0.3084380000103124,0
5.436085731570536,0.5482673176373035,-15.811773126232454,10.185978810565704,-2.637390171856126,-22.044973437069082,24.32380487538415,132.132,0.3124380000103315,0
4.8376765213494854,1.2958999138736222,-14.462880242924635,9.542078946336071,-2.964865136996667,-22.93869215108319,24.690782149445358,132.136,0.3164380000103222,0
4.82800050730009,1.0695629196365048,-14.498706444194388,9.630444478380223,-3.127418572420292,-22.430422608988977,24.528539720286865,132.14,0.32043800001031286,0
5.604992946569695,0.0056041832996001,-16.272682041451365,10.50511925541955,-2.7636938132157263,-21.06563915159896,23.98629862097723,132.144,0.32443800001033196,0
6.610630182964201,-1.0918924549528775,-18.501104583208853,11.521368450551863,-2.1085521899797697,-19.912127347307415,23.481677941932904,132.148,0.32843800001032264,0
6.999545255835991,-1.4620300420845451,-19.349786306267493,11.89189054152284,-1.8193696301728466,-19.585076323734974,23.324826504901086,132.152,0.3324380000103133,0
6.446276761672794,-1.0511294686125294,-18.170414790022544,11.412702415437941,-2.307041745363936,-19.79677705805289,23.466383884941198,132.156,0.3364380000103324,0
5.537938995267977,-0.5827570510984629,-16.28401622041621,10.711426235179859,-3.2437087597980447,-19.692204384891223,23.553321185756143,132.16,0.3404380000103231,0
5.162848051590293,-0.6986251293345418,-15.579807979847194,10.549970401819438,-3.834488727419256,-18.970964721766244,23.371068104957573,132.164,0.34443800001031377,0
5.685034475643163,-1.3353471951006284,-16.753094133642207,11.105356902766312,-3.5383838648171957,-18.225461278249025,23.06189509339965,132.168,0.34843800001033287,0
6.630413238986952,-1.8305844028330067,-18.71829506108664,11.838447327068371,-2.5686422290114463,-18.31727427101503,22.96593539789087,132.172,0.35243800001032355,0
7.208839442242561,-1.6911116203455925,-19.81372959486839,12.103670675498023,-1.6834625249344266,-19.3435384859091,23.219332108316973,132.176,0.3564380000103142,0
7.000883917955896,-1.0209478063268196,-19.245772053979014,11.709902766313515,-1.5266097970512222,-20.55376444407508,23.636307417162758,132.18,0.3604380000103333,0
6.287442185069657,-0.4086662543031923,-17.70504303168352,11.057840714425131,-2.1011006020526324,-21.00745768678237,23.876984675326998,132.184,0.364438000010324,0
5.680751825822012,-0.3011099714031583,-16.49471685180984,10.674492759514088,-2.862105849413751,-20.487569728798483,23.79025781608917,132.188,0.3684380000103147,0
5.540067780821824,-0.5941883863429046,-16.29093525835882,10.717350864782832,-3.248329339561895,-19.669794144437116,23.54582848309613,132.192,0.3724380000103338,0
5.731071653829355,-0.8028300198409577,-16.714232705326193,10.910449269443605,-3.124021933306744,-19.450286089540974,23.44984982474194,132.196,0.37643800001032446,0
5.932784785315398,-0.6682835050805622,-17.07547329309214,10.96734903428581,-2.7586728256940938,-19.9965169325991,23.598812736864755,132.2,0.38043800001031514,0
5.9797544198348325,-0.4202727526050221,-17.10720886240272,10.89082985254837,-2.5306838306277504,-20.59875649406144,23.786337667313774,132.204,0.38443800001033424,0
5.887393409626336,-0.4591786132086998,-16.93631526513983,10.855371779324605,-2.68299829363925,-20.398415286585102,23.734142269621998,132.208,0.3884380000103249,0
5.711412394190141,-0.9565173689156958,-16.71300816127499,10.963142032889914,-3.252347804487547,-19.08885719803888,23.336176105637097,132.212,0.3924380000103156,0
5.510991006598894,-1.7893280492621955,-16.52308796739476,11.19624644146342,-4.076478919978276,-17.013373670067644,22.6950311586406,132.216,0.3964380000103347,0
5.420656857887696,-2.745826371627307,-16.577970338268855,11.542068244723778,-4.831229467028198,-14.803844064471141,21.99614513878406,132.22,0.40043800001032537,0
5.655162231319032,-3.6831709472308845,-17.2623444944194,12.06135207214033,-5.1278988896856355,-13.040926299064239,21.397826326940837,132.224,0.40443800001031605,0
6.395851944547744,-4.573892175347745,-18.923574696170675,12.843984332533498,-4.6996934722321075,-12.010727000308632,20.968051066977953,132.228,0.40843800001033514,0
7.516339003159817,-5.296968772491524,-21.285684052918004,13.769250147646648,-3.6401040579055715,-11.821143624168919,20.758311356677595,132.232,0.4124380000103258,0
8.534227913363695,-5.599920874073993,-23.345949552176712,14.463170244190483,-2.4441049842374305,-12.424837498535712,20.81741475146973,132.236,0.4164380000103165,0
8.97390765669749,-5.3718622317732185,-24.149121133964798,14.614214553695575,-1.6907578842736535,-13.472493407851557,21.0961124474702,132.24,0.4204380000103356,0
8.889902684058,-5.033208195121338,-23.903267888933414,14.427003931289706,-1.5825870467660736,-14.110315929114323,21.312472444587478,132.244,0.4244380000103263,0
8.811983883475836,-5.246480248953924,-23.80271843416716,14.47184860513702,-1.8301036349903552,-13.545686635293729,21.141156464792346,132.248,0.42843800001031696,0
9.201707427387435,-6.299404210895959,-24.818035540228248,15.12569272859763,-1.9901571182737134,-11.722714190502975,20.50291090391588,132.252,0.43243800001033605,0
9.972835413867898,-7.780290492021628,-26.681351386424673,16.16982097294319,-1.9094666618247855,-9.436561602128915,19.66501375558896,132.256,0.43643800001032673,0
10.655580755167339,-9.039451099559226,-28.318534623219442,17.07273609067989,-1.8037307261320021,-7.526427093926095,18.95982669698958,132.26,0.4404380000103174,0
10.859985822120024,-9.722357774562306,-28.88264175217003,17.469800571206274,-1.9738569420194758,-6.283841475551844,18.532911550977396,132.264,0.4444380000103365,0
10.692525681698568,-10.078790269580175,-28.641905563459435,17.52395321210586,-2.4385845022020995,-5.293817300909803,18.236618742347133,132.268,0.4484380000103272,0
10.613282245471174,-10.635815977922228,-28.621869476572346,17.710471378733875,-2.9146467796918314,-3.9738987725026185,17.82247738248402,132.272,0.45243800001031786,0
10.921835476496774,-11.650488856669948,-29.469486479078935,18.303141312023598,-3.1607787548299004,-2.133681715013376,17.18945901707184,132.276,0.45643800001033696,0
11.34653709065855,-12.75087779260057,-30.564558785995466,18.996182117906507,-3.304173720802949,-0.2502165432485125,16.527107634082476,132.28,0.46043800001032764,0
11.383169974317372,-13.391586115266566,-30.79095534089718,19.282076799244958,-3.6765308699102848,1.10883089771573,16.08499465479601,132.284,0.4644380000103183,0
10.9348016560019,-13.485205326292231,-29.938323253989704,19.07048389254296,-4.353120417904994,1.8725667119022293,15.89879673773984,132.288,0.4684380000103374,0
10.555140616915525,-13.561599968637745,-29.215651360452686,18.890122630228785,-4.924131841221641,2.5129580333389274,15.743161889828835,132.292,0.4724380000103281,0
10.898126186553448,-14.176086249638303,-30.033742695328137,19.33622758517453,-4.8590965788227,3.432924401950505,15.401647350110663,132.296,0.4764380000103188,0
11.975226878338178,-15.293030416862411,-32.4063709190018,20.400440360790224,-4.118785101684419,4.540057866578659,14.902461331841572,132.3,0.4804380000103379,0
12.969265971284136,-16.232658521397617,-34.57398939771717,21.34480978620229,-3.37542266879867,5.361908190083213,14.506086640343788,132.304,0.48443800001032855,0
12.900739110076906,-16.30614747038227,-34.45798278264886,21.33698857857618,-3.5178636266563763,5.608380960302595,14.43588523073187,132.308,0.48843800001031923,0
11.61576588484088,-15.600302755387629,-31.77894421132278,20.32700920953678,-4.814376242353189,5.661460117464805,14.589387997221072,132.312,0.49243800001033833,0
10.110323006918644,-15.089983142937358,-28.716791283890803,19.274918770503238,-6.5421781044312635,6.417821554835493,14.545889199002035,132.316,0.496438000010329,0
9.72239761654315,-15.814175353513345,-28.13458542526776,19.358317625076563,-7.551789475401582,8.48872656407987,13.931108448483126,132.32,0.5004380000103197,0
10.911230876629771,-17.86756211604646,-30.95170391191614,20.87288163880387,-7.275909138731476,11.509725889996323,12.801336761264187,132.324,0.5044380000103388,0
12.842222510022657,-20.284783045414343,-35.305549611693905,22.95261477604366,-6.222291088945057,14.403957527528375,11.613828932458572,132.328,0.5084380000103295,0
14.091927512823473,-21.7792286554053,-38.10637760389184,24.26960793762158,-5.4942779544573375,16.1237226877268,10.89462607558266,132.332,0.5124380000103201,0
13.869862982650837,-21.761462068070614,-37.66858862145577,24.138241953373086,-5.787073659460132,16.36137471610561,10.847644696856976,132.336,0.5164380000103392,0
12.68405377210606,-20.790135444249955,-35.118951230414254,23.073651739392943,-6.772500422101096,15.708897641532257,11.214983943734076,132.34,0.5204380000103299,0
11.928438456864361,-20.206551891909513,-33.502832266056906,22.40992832681784,-7.423751581954831,15.37065270918489,11.424116247054188,132.344,0.5244380000103206,0
12.624124564898443,-20.99313123520223,-35.05103522593978,23.124284841594342,-6.988570227882647,16.22858963864939,11.055737643882518,132.348,0.5284380000103397,0
14.54103840884154,-22.9994453574922,-39.27806671082565,25.02592266781848,-5.683235485705808,18.23949192163147,10.154294555732205,132.352,0.5324380000103304,0
16.485577376242222,-25.17310636726785,-43.599479966694794,27.012316838796778,-4.450395606722297,20.582872679178852,9.14221504646711,132.356,0.536438000010321,0
17.47907658071734,-26.640618876786913,-45.89365559549079,28.175081234691888,-4.055949674875865,22.562719671835566,8.373346659908792,132.36,0.5404380000103401,0
17.495277514223066,-27.32553044796084,-46.0908524829062,28.467879185520776,-4.485479962306282,24.044127511932988,7.894578681496502,132.364,0.5444380000103308,0
17.310806328928972,-27.872829732183096,-45.86304913157808,28.59160642422601,-5.099424337742959,25.473793496115817,7.459096952233364,132.368,0.5484380000103215,0
17.671689880212128,-28.937524635415077,-46.824912954113564,29.234222256956386,-5.306789448152053,27.3584953808461,6.804819519666127,132.372,0.5524380000103406,0
18.695264134698284,-30.648338169207044,-49.23661407203613,30.514578015848862,-5.03157581915956,29.834289694489037,5.8723962153666305,132.376,0.5564380000103313,0
19.887296384817805,-32.50042430750284,-52.01131480924338,31.947531872472187,-4.618537111918642,32.40997653057769,4.885471440797282,132.38,0.560438000010322,0
20.82098059980883,-33.97817119047127,-54.19119914619635,33.081134307340044,-4.312864916111248,34.48676661906399,4.093353726566112,132.384,0.5644380000103126,0
21.63445129053505,-35.12037758702149,-56.05529988470088,34.0085964133554,-3.950727765867437,35.97766158284592,3.505695950853593,132.388,0.5684380000103317,0
22.88695494346217,-36.51133407291713,-58.83657362717993,35.284278042495544,-3.150618669193108,37.467053072887595,2.860240310445053,132.392,0.5724380000103224,0
24.922194365639545,-38.636287084625614,-63.32326932159621,37.30114208457265,-1.761276238255684,39.59067097955729,1.9068252147082219,132.396,0.5764380000103131,0
27.50882615869374,-41.36814019547852,-69.03305517071374,39.87734694202777,-0.016109593989534078,42.358032317731805,0.6730995417286915,132.4,0.5804380000103322,0
30.022574999661504,-43.98962429237919,-74.57388491563633,42.36712781367902,1.7019096481732785,44.97420550517918,-0.5023087586772166,132.404,0.5844380000103229,0
31.94947496111937,-45.74799969977498,-78.760473542871,44.17162393098481,3.1844708904130004,46.42909276159747,-1.2261893014684138,132.408,0.5884380000103135,0
33.20947145116207,-46.4558702382546,-81.3912445384869,45.1684950427116,4.445397087103121,46.411565958652105,-1.3878147628871145,132.412,0.5924380000103326,0
34.03868219028029,-46.567670878707894,-83.03698069752683,45.67786143316893,5.508741982618821,45.62381227568169,-1.2444463055147257,132.416,0.5964380000103233,0
34.633300474118265,-46.68467046893728,-84.22602370564056,46.05838034192848,6.246964449034726,45.139664608240786,-1.1676156987441508,132.42,0.600438000010314,0
34.995563925083616,-47.03132745200274,-85.01700235419565,46.40429186327777,6.515087088519239,45.44843439318997,-1.3150474638719123,132.424,0.6044380000103331,0
35.15192222869602,-47.49565957160325,-85.43447864838771,46.6839730916805,6.423240004595572,46.27166808518016,-1.600665190160975,132.428,0.6084380000103238,0
35.27646123945714,-47.8919446948114,-85.77339050863442,46.917694669347505,6.332641253550248,46.985350830631475,-1.846812789540213,132.432,0.6124380000103145,0
35.51949715644928,-48.15784034104436,-86.31210077283541,47.16356853952278,6.490536507586873,47.26557052488229,-1.9692316145611264,132.436,0.6164380000103336,0
35.735538528357864,-48.29817748699379,-86.76776217158655,47.3423506427467,6.694229005734777,47.304142398680284,-2.0103209169389333,132.44,0.6204380000103242,0
35.570184806242914,-48.356636591379214,-86.45910568621652,47.274232593043465,6.4289239421838715,47.638271371009445,-2.095870434883609,132.444,0.6244380000103149,0
34.73236443761773,-48.23735899465283,-84.7947551118412,46.75696078766296,5.358704349911717,48.420356849538265,-2.2362723182363493,132.448,0.628438000010334,0
33.31619711227106,-47.76080404777702,-81.91504004691296,45.76871200325606,3.7310546836046057,49.139541861971935,-2.2796615664134117,132.452,0.6324380000103247,0
31.812624869690374,-46.84715424532268,-78.75903753732365,44.55057109365512,2.271842065161841,49.00931945380546,-2.0381656996662163,132.456,0.6364380000103154,0
30.807877209145737,-45.70257361070558,-76.52096943263903,43.51531229657057,1.648975446644191,47.751473496706474,-1.5000954057220808,132.46,0.6404380000103345,0
30.449125054911644,-44.53330682282455,-75.53798706277722,42.83056374800929,1.9282356796327031,45.63485524645074,-0.7714858434023464,132.464,0.6444380000103251,0
30.36726120493757,-43.39241890938825,-75.10238105609723,42.31219247778192,2.568471159686644,43.23556276085126,0.011312362228344494,132.468,0.6484380000103158,0
30.044269538169182,-42.23595050019851,-74.19230092834472,41.65271555692892,2.8883278374543115,41.10246024600677,0.740478249984305,132.472,0.6524380000103349,0
29.2989457626209,-41.17230451143174,-72.48022160545881,40.79585479360817,2.567823596708328,39.69891602120896,1.290985942744425,132.476,0.6564380000103256,0
28.319789902087663,-40.371621087914754,-70.37524537745858,39.9173596653238,1.753226736408919,39.16314696662674,1.5933431949264678,132.48,0.6604380000103163,0
27.433244326570534,-39.90187765942107,-68.53105610199759,39.227684707362826,0.8473473257808303,39.23756954717109,1.6870878545336516,132.484,0.6644380000103354,0
26.82740981646664,-39.57437571591842,-67.26923084570855,38.75369371157804,0.23258501950158003,39.27418658812272,1.7557314259582855,132.488,0.668438000010326,0
26.48378202824932,-39.054728642398224,-66.47281231343082,38.34652092440958,0.10411609579850332,38.56294392234824,2.0301779850236823,132.492,0.6724380000103167,0
26.2185802993016,-38.09382447641831,-65.72282022934311,37.80033514017365,0.37423120824220313,36.78660986293889,2.6368881951053607,132.496,0.6764380000103358,0
25.795839094468107,-36.77309001456656,-64.57830840377416,37.01710244337315,0.665647522024496,34.417621278535556,3.455188079939628,132.5,0.6804380000103265,0
24.9966308822258,-35.455696994062095,-62.699699859728085,36.02502699508947,0.4386159662313038,32.524885024070954,4.170237986172842,132.504,0.6844380000103172,0
23.73299006677605,-34.516285493839604,-60.00584190370722,34.930196050346204,-0.6745904154704424,32.039324991466216,4.494206704428922,132.508,0.6884380000103363,0
22.252220336227836,-34.18451681113017,-57.035016640812415,33.96585521693722,-2.486324982707248,33.15640541821907,4.331377463265868,132.512,0.692438000010327,0
21.170580283640863,-34.5241827723685,-55.005648838209325,33.50256443975262,-4.19359602615782,35.24837177208765,3.80191114125471,132.516,0.6964380000103176,0
21.09115676773716,-35.38838274145352,-55.05951769365718,33.816240819851124,-4.872507847154242,37.24195787951638,3.1710528151605053,132.52,0.7004380000103367,0
22.027447096415663,-36.31776644116261,-57.111927825228896,34.72411798472903,-4.201578598314944,38.11328031083435,2.76642747272762,132.524,0.7044380000103274,0
23.255124108997993,-36.69175061653108,-59.59889381518345,35.56461593099676,-2.76475057456875,37.40400418944603,2.8316507768425927,132.528,0.7084380000103181,0
23.75017559103532,-36.00440904953292,-60.39912973310788,35.55630533174139,-1.6325442276996391,35.28045379863254,3.4491482889313447,132.532,0.7124380000103372,0
22.94704717575629,-34.21283622764566,-58.39824003690168,34.36559350575871,-1.5521972324368882,32.35301735468345,4.497615460785948,132.536,0.7164380000103279,0
21.194099458938368,-31.879889801434953,-54.41232796219055,32.42019778577395,-2.4172509867219807,29.421776431519106,5.67339507411619,132.54,0.7204380000103185,0
19.54180827622213,-30.003182443323002,-50.733199859938175,30.72002539947197,-3.445196959446203,27.36540816320797,6.554337423805421,132.544,0.7244380000103376,0
18.853798439018878,-29.25951798519139,-49.21035608262765,30.027734620116917,-3.8981572758331433,26.59199549991439,6.894502784602088,132.548,0.7284380000103283,0
19.12754925816822,-29.469572689359634,-49.795526150747165,30.267626073871405,-3.6613121535040927,26.711532100801517,6.819703560769877,132.552,0.732438000010319,0
19.623121021717512,-29.783514568261015,-50.83882853433827,30.674426260251067,-3.1888078168263307,26.782529295483542,6.731074341973593,132.556,0.7364380000103381,0
19.663119458727575,-29.53570041988699,-50.85700309626833,30.59409566644709,-2.970508001673223,26.189404076127587,6.916592316526446,132.56,0.7404380000103288,0
19.107691990114777,-28.65516233155372,-49.55988659220513,29.919136486860932,-3.1513823687255087,24.950767795722996,7.3888350197857635,132.564,0.7444380000103195,0
18.287854519553104,-27.554023690363486,-47.69328495019652,29.00513293756509,-3.5493372114252577,23.557839482450763,7.945818912416436,132.568,0.7484380000103386,0
17.533860609485302,-26.571824741324857,-45.98396963609781,28.177173163870297,-3.9354506247394325,22.343657772447052,8.43655345635955,132.572,0.7524380000103292,0
16.863517835662027,-25.640700310497536,-44.45029720649682,27.41708552621456,-4.240541567206034,21.13725520682049,8.91368051550342,132.576,0.7564380000103199,0
15.987463366807589,-24.309627329830334,-42.41836942331795,26.376430065974034,-4.563928446439507,19.310246812496885,9.61778495430938,132.58,0.760438000010339,0
14.684573641440469,-22.299240503205258,-39.38899515916976,24.815988910357415,-5.024574246112639,16.525588289504135,10.68665906718571,132.584,0.7644380000103297,0
13.049344159868587,-19.87272098389989,-35.610261451301085,22.897563262326216,-5.666484719416398,13.24256979786196,11.959989934560674,132.588,0.7684380000103204,0
11.414361110243302,-17.69952180525518,-31.893246606041377,21.084222939274525,-6.475139493590122,10.514619266544512,13.054704588824396,132.592,0.7724380000103395,0
10.045906668496558,-16.278905526784143,-28.87845435744216,19.731504245959346,-7.4146876123451895,9.104630275860071,13.690006306255565,132.596,0.7764380000103301,0
9.019863456078314,-15.595989817982595,-26.7104181600507,18.875616050764993,-8.371256371813342,8.885455820387163,13.896729022616242,132.6,0.7804380000103208,0
8.263701373448496,-15.162027545557867,-25.12940137818061,18.27357369231673,-9.121942855745225,8.875918918015781,14.000177795702726,132.604,0.7844380000103399,0
7.642959626899643,-14.366791019993519,-23.725405158316708,17.597481109409294,-9.448644043203235,7.905651579982008,14.394747905222546,132.608,0.7884380000103306,0
7.039333984136369,-12.914230777857755,-22.195919629233245,16.658624839832402,-9.31832384661763,5.472959872787637,15.257555556952244,132.612,0.7924380000103213,0
6.424249111137043,-11.047206726553851,-20.543871725529293,15.54166189244555,-8.930350075787032,2.1458788316841373,16.409638692603423,132.616,0.7964380000103404,0
5.867122574772758,-9.363299686193317,-19.049231597380114,14.532927373514724,-8.58367713949335,-0.8519325972641605,17.448091072043454,132.62,0.800438000010331,0
5.474391156511258,-8.367661488298154,-18.041891086559872,13.901136425061441,-8.465532223264809,-2.5455661702770853,18.045123386827186,132.624,0.8044380000103217,0
5.338321920126877,-8.201973378374397,-17.73621562461984,13.756509825848642,-8.54283933838741,-2.7393301826822856,18.125526778088407,132.628,0.8084380000103124,0
5.369008419813555,-8.4805050097286,-17.863451396552918,13.889038271679015,-8.684470183132072,-2.1669055389838614,17.93728543690489,132.632,0.8124380000103315,0
5.217784316161307,-8.438006379820758,-17.55797188171256,13.786984865660065,-8.863810911689049,-2.07171429716728,17.92673428856825,132.636,0.8164380000103222,0
4.49643814287668,-7.416663781003957,-15.902925887382375,12.961039507655542,-9.17933700297511,-3.412379795355045,18.45382881618422,132.64,0.8204380000103129,0
3.228940133972966,-5.519479887734433,-12.970005837444111,11.467260505904646,-9.666115774487745,-5.992938119780478,19.452338979569113,132.644,0.824438000010332,0
1.9292285791484254,-3.5817103607325844,-9.964390253908244,9.938678621875471,-10.170299508827947,-8.622350516944515,20.47084343938932,132.648,0.8284380000103226,0
1.2148658805091952,-2.547576426922101,-8.319884575978358,9.111333679167817,-10.46781249138185,-9.99975810895107,21.008832043556332,132.652,0.8324380000103133,0
1.2609180181363773,-2.6966384478539682,-8.445817685819813,9.198804844557607,-10.502978516827424,-9.730319698917254,20.916031486724414,132.656,0.8364380000103324,0
1.6911146021019545,-3.5239239860246583,-9.485596602547217,9.781770550912656,-10.458707787677168,-8.452445982174408,20.447789205408778,132.66,0.8404380000103231,0
1.8760361454184231,-4.112938914234787,-9.988972334244052,10.129056749223361,-10.593623407616846,-7.391438283402855,20.081880044856682,132.664,0.8444380000103138,0
1.5552203592281737,-3.978712719121855,-9.33025716565223,9.894298112559115,-10.945022192715628,-7.28610580109665,20.09057940679899,132.668,0.8484380000103329,0
1.1019071187487048,-3.4831885898146315,-8.325552213431177,9.435868527651566,-11.23981199273276,-7.807837763609757,20.318614913187968,132.672,0.8524380000103235,0
1.1655217027002742,-3.4711462869173424,-8.446823676411544,9.466403257477653,-11.144635471656972,-7.913477299042056,20.344157773849897,132.676,0.8564380000103142,0
1.8788368390836465,-4.233076300156352,-10.023481671212723,10.180392256627913,-10.669021744197835,-7.131539798655594,19.99789041851085,132.68,0.8604380000103333,0
2.608279683075179,-5.083769801912315,-11.65308043793977,10.940161001348606,-10.22983795652442,-6.175087480705178,19.59333499265779,132.684,0.864438000010324,0
2.476198899126386,-4.90713343777801,-11.352544231184535,10.793225901451342,-10.294454633960866,-6.397822255907282,19.68252975825287,132.688,0.8684380000103147,0
1.237669547030541,-3.261721069377606,-8.537037534239854,9.419929660792013,-10.907569769034552,-8.462484566285722,20.511213731115088,132.692,0.8724380000103338,0
-0.4512611532729352,-0.8670199729001209,-4.661165019109847,7.4846981336863685,-11.644106418435452,-11.608854785773723,21.747709215805642,132.696,0.8764380000103245,0
-1.5776732652187153,0.9139891427386378,-2.0317441167155597,6.117834333843213,-12.01404134183183,-14.110449971752491,22.702085218936627,132.7,0.8804380000103151,0
-1.69459374574808,1.2547988889334512,-1.7211151034397678,5.911349915774486,-11.949585242325837,-14.711999135163635,22.911144421969258,132.704,0.8844380000103342,0
-1.2870088600337013,0.5474906945620016,-2.6877501395701557,6.431983537897864,-11.857188289796026,-13.668996478713915,22.52146953565377,132.708,0.8884380000103249,0
-1.1985587812276417,-0.10494309141629725,-3.018134006468258,6.751671752722069,-12.166222993076394,-12.348785748201204,22.084972867667627,132.712,0.8924380000103156,0
-1.7158026501668329,-0.04280370921704033,-1.9933961959454882,6.437088295044771,-12.834527092553188,-11.840740986151612,21.99018233898926,132.716,0.8964380000103347,0
-2.286460506047703,0.35643694087944533,-0.782897433645496,5.953020157227413,-13.353735520375823,-12.00521855907041,22.11885492103245,132.72,0.9004380000103254,0
-2.152767304390283,0.22687901300732108,-1.0752004873801622,6.0813516087127155,-13.255856282528763,-11.88770611730281,22.063299569881977,132.724,0.904438000010316,0
-1.148811615291556,-0.825273240311425,-3.289378889262039,7.077876133872896,-12.573112793572326,-10.831511987023703,21.59021239158802,132.728,0.9084380000103351,0
0.0683236379912009,-2.192397088593243,-5.995848359720188,8.323933718429743,-11.805784622609687,-9.350315925185598,20.952088639687695,132.732,0.9124380000103258,0
0.6095253764757592,-2.768182964651866,-7.191523723681023,8.864693605133455,-11.443412706143237,-8.762093318420453,20.690993731287275,132.736,0.9164380000103165,0
0.1466409280166991,-1.9519683157764867,-6.090610828732814,8.268060852186407,-11.539809862906736,-9.974979474362145,21.142666701574992,132.74,0.9204380000103356,0
-0.820629050411705,-0.26139863663384716,-3.79371553269358,7.027533378711718,-11.751166440955652,-12.476524031711861,22.075900313694845,132.744,0.9244380000103263,0
-1.6171342510539903,1.3152906231604073,-1.8577011430587749,5.9295438903075075,-11.803467647916156,-14.941103519632657,22.974572048193583,132.748,0.928438000010317,0
-2.107953309769289,2.329320193576887,-0.654436965712158,5.235359411566976,-11.807698567373299,-16.552880218626903,23.558289456337704,132.752,0.932438000010336,0
-2.716412840413207,3.215419272131446,0.7475481992623061,4.528482161859755,-12.05762720527948,-17.73765167373467,24.020242086173745,132.756,0.9364380000103267,0
-3.6973911582097965,4.531404349625792,2.980651371493318,3.4354857691412204,-12.534846208102474,-19.40088866910073,24.685584545152572,132.76,0.9404380000103174,0
-4.706055954318011,6.253540463512327,5.36598473442847,2.1587649493998873,-12.782146682490461,-21.920077595802635,25.62999008527034,132.764,0.9444380000103365,0
-5.022829458729979,7.642340662384233,6.320090350656368,1.406507984590053,-12.300524292216402,-24.570285439699138,26.52470019301476,132.768,0.9484380000103272,0
-4.30098344297378,7.945187742308546,4.984178962341606,1.684135866212108,-11.11091838596268,-26.13337195367293,26.93177121174706,132.772,0.9524380000103179,0
-3.0115613852854817,7.13850737846259,2.272079720860939,2.7383746095923573,-9.874813210770958,-25.97092232264584,26.708335209786355,132.776,0.956438000010337,0
