Fz,FC3,FC5,F3,FC4,FCz,Cz,Time,t_rel,idx
7.68603519895604,-31.08831923380833,-27.851764925882705,24.549072798918246,-20.418575816482644,44.51197158134424,2.6115803969550533,356.444,-1.9971379999946635,1
7.30040194959068,-30.30908761282977,-26.910595058379627,24.010900380039168,-20.43343233760193,43.28394239225134,3.057870286929959,356.448,-1.9931379999947012,1
7.099835100879228,-30.04407523663973,-26.455002549525805,23.789108056915833,-20.53367292788962,42.95275976957498,3.191047786685148,356.452,-1.989137999994682,1
6.492887384347252,-29.404788234879724,-25.115633099216176,23.18532644904028,-20.94431801701919,42.30721151755126,3.4793140001762066,356.456,-1.985137999994663,1
5.7260575399019515,-28.416047779986098,-23.37967930003176,22.347488749528317,-21.34371859408088,41.09467674522083,3.97122263944752,356.46,-1.9811379999947007,1
5.543873194570757,-27.90850783967198,-22.901342685140634,22.035485213157706,-21.258787864427802,40.20888388183388,4.280396099678105,356.464,-1.9771379999946816,1
6.211098093219684,-28.424993618141915,-24.32869370432927,22.622051725078993,-20.68448964267583,40.5101238139373,4.09490333291087,356.468,-1.9731379999946626,1
6.941786439846827,-29.298752974115718,-25.966299779940755,23.392071903489764,-20.2588114357098,41.51559389608387,3.674411950345757,356.472,-1.9691379999947003,1
6.496536738982665,-29.066222031128863,-25.040911852500212,23.047100229461165,-20.716005954431743,41.56039949010861,3.7191033795083706,356.476,-1.9651379999946812,1
4.35647583172656,-26.790310053926095,-20.313100331602783,20.90916110346978,-22.149520781012153,39.23638733808564,4.750906893258979,356.48,-1.961137999994662,1
1.3523232521723076,-23.050331260973213,-13.544563701487453,17.68214897293974,-23.80229946733791,34.778892684908406,6.5838295197780665,356.484,-1.9571379999946998,1
-0.8443854676013015,-19.6989010409977,-8.446173118035894,15.067001645811347,-24.604116217900817,30.167494276327346,8.359079922397013,356.488,-1.9531379999946807,1
-0.98334902189003,-18.5023788907041,-7.88565323636815,14.493696076832176,-24.005486151451663,27.717353587019353,9.165817636562382,356.492,-1.9491379999946616,1
0.7633260280590269,-19.73517117352333,-11.593368506870256,15.9798077623759,-22.423406511287304,28.2444497632922,8.764362637953683,356.496,-1.9451379999946994,1
2.897115858790776,-21.894641882673945,-16.28078962819543,18.066004705640765,-20.921690080317013,30.320989434807295,7.8130115919475855,356.5,-1.9411379999946803,1
3.7485310604142565,-22.894796634421887,-18.184622528520443,18.955805454844956,-20.413827297950135,31.45318933841129,7.33572060722196,356.504,-1.9371379999946612,1
2.6314057884172937,-21.576724973048037,-15.685241305047501,17.785917299812684,-21.07636647500974,29.954962151111175,7.966047513764065,356.508,-1.933137999994699,1
0.12977787093444948,-18.360796664854153,-10.024371643252206,15.056633586024569,-22.385687523123938,26.02044246764582,9.564001906625434,356.512,-1.9291379999946798,1
-2.5470224218406026,-14.649836212970218,-3.9018771352814663,12.024443803702274,-23.608712179040086,21.218817689984817,11.464186455445269,356.516,-1.9251379999946607,1
-4.427915526140471,-11.76442831150778,0.46735057554920206,9.778722242133709,-24.28482922760371,17.235738799334307,12.995361448234728,356.52,-1.9211379999946985,1
-5.305491343954449,-10.122785735945161,2.577325464499599,8.608551806985846,-24.4054602517367,14.729738253431174,13.918121806719693,356.524,-1.9171379999946794,1
-5.583678949369237,-9.316032674771382,3.315402815430038,8.118977471997189,-24.254825772046743,13.307537461318304,14.412619647441835,356.528,-1.9131379999946603,1
-5.781936881351866,-8.71239861407158,3.8483466633060286,7.758187415613409,-24.12855583017459,12.231090823190867,14.785266423487741,356.532,-1.909137999994698,1
-6.103164210120119,-8.055362773133455,4.634249503590734,7.306604923939931,-24.135689951905594,11.190737546956598,15.162624960671872,356.536,-1.905137999994679,1
-6.466520456934353,-7.404658977719776,5.50086185460975,6.8341200547380465,-24.20477129217984,10.216742235485471,15.524226582000637,356.54,-1.9011379999946598,1
-6.738473279857846,-6.840558664921027,6.168109222090797,6.448555604108056,-24.20563335916828,9.318762889588763,15.849237588159555,356.544,-1.8971379999946976,1
-6.949473981402808,-6.219254028004364,6.730200034903566,6.073329000864253,-24.085182436246125,8.219447971412873,16.2309334384726,356.548,-1.8931379999946785,1
-7.28648258837055,-5.263472003973481,7.619128713198174,5.489166794658511,-23.916913500270606,6.543786118697575,16.814786466060372,356.552,-1.8891379999946594,1
-7.978750951611292,-3.733890091969834,9.340273720195096,4.468901376336714,-23.857346728983757,4.052646711112371,17.7081659649207,356.556,-1.8851379999946971,1
-9.041785140183217,-1.706779938329115,11.905466636155747,3.0354723001789337,-23.97805178792722,0.932560652479035,18.853117277625834,356.56,-1.881137999994678,1
-10.173303693399218,0.416670980622164,14.62763793930074,1.5238872442383968,-24.129125124480122,-2.313437151718781,20.047669805436787,356.564,-1.877137999994659,1
-10.899842600728896,2.1407696601364017,16.46270536198137,0.4038983691854496,-23.98825585358821,-5.188344261770136,21.069069324783992,356.568,-1.8731379999946967,1
-10.934876593977245,3.2056309355973753,16.788515680966988,-0.05682516263052821,-23.333948053217497,-7.479288510361861,21.810791703622733,356.572,-1.8691379999946776,1
-10.409124475585074,3.6816153497028092,15.877255190753543,0.03957096204588165,-22.29904696585997,-9.17770397302426,22.28743391196708,356.576,-1.8651379999946585,1
-9.809782827889043,3.878384461035581,14.754842284688438,0.29273672129481026,-21.347395325313634,-10.355635858259797,22.586850544443642,356.58,-1.8611379999946962,1
-9.631086695169477,4.146412882147811,14.470801368635211,0.28148328819409457,-20.925568587206524,-11.165840077779361,22.82379782117825,356.584,-1.857137999994677,1
-9.976184841758558,4.638516943052315,15.263431936867383,-0.11509982364576243,-21.074220308588625,-11.814866467080629,23.07842256115386,356.588,-1.853137999994658,1
-10.473835064629958,5.206656605484069,16.372241612980478,-0.6283718920321836,-21.38191384392778,-12.440573341961882,23.345795924087234,356.592,-1.8491379999946957,1
-10.636593562794872,5.55752811811279,16.77478375143643,-0.8646216949285688,-21.373678350280525,-13.007085988644244,23.549667727098974,356.596,-1.8451379999946766,1
-10.349567999563757,5.573952045410741,16.218449012227236,-0.7111448455743191,-20.969251484689593,-13.400612024274842,23.63817529646453,356.6,-1.8411379999946575,1
-9.9513542180371,5.413096812308316,15.40220723328868,-0.42213344002686226,-20.529281594117062,-13.54397028834589,23.63143549492992,356.604,-1.8371379999946953,1
-9.881929949594003,5.419036343729303,15.268119347899756,-0.38582615229849876,-20.43016353223307,-13.64346675075432,23.654230693250852,356.608,-1.8331379999946762,1
-10.218882359223553,5.864542472654444,16.033583942899686,-0.758555524922984,-20.59837966687316,-14.200478995060458,23.878170130526044,356.612,-1.829137999994657,1
-10.568443331931666,6.733588728468948,16.926048649156016,-1.3137936012710607,-20.504531834077387,-15.670347720572817,24.39747911022794,356.616,-1.8251379999946948,1
-10.40668310287881,7.655152820707183,16.833054534477334,-1.6052567323624445,-19.674877232133912,-17.89225634910906,25.090866061299653,356.62,-1.8211379999946757,1
-9.656069854735199,8.258404577692662,15.513606379081606,-1.436018837708763,-18.247685625576697,-20.1497770347853,25.71754039603168,356.624,-1.8171379999946566,1
-8.834000213821664,8.504242861381105,13.968266252559516,-1.078805891340672,-16.958245690969044,-21.71271686280808,26.111259544998838,356.628,-1.8131379999946944,1
-8.595860777716911,8.72669185080039,13.557167155851285,-1.0379819012951443,-16.48496795730214,-22.49703603361135,26.331987663273903,356.632,-1.8091379999946753,1
-9.051228991468749,9.238162408225982,14.569738537499985,-1.5041654486810072,-16.77205794476435,-23.051168984660567,26.5707204238487,356.636,-1.8051379999946562,1
-9.635513837731903,10.037526830634494,15.903564809109078,-2.1616098742102277,-17.046043660573005,-24.07589689698109,26.977972629752628,356.64,-1.801137999994694,1
-9.572397348086602,10.695240267016965,15.93935058086713,-2.398847437130414,-16.525685541643586,-25.596473677116162,27.45881315609265,356.644,-1.7971379999946748,1
-8.567922922484884,10.667303354601858,13.971753937766975,-1.826353909286304,-15.166690085807758,-26.78639680151685,27.708306426726935,356.648,-1.7931379999946557,1
-7.0673210846550845,9.747620077948978,10.82009144539455,-0.6073721368222311,-13.715530234192398,-26.639246783348263,27.46175871567442,356.652,-1.7891379999946935,1
-5.915546785030511,8.384423311955125,8.242162989325873,0.6005595752838976,-13.035240446215026,-25.08524690130665,26.80888825598727,356.656,-1.7851379999946744,1
-5.604726730634705,7.321580502483157,7.37847627547097,1.2144516001996613,-13.310035348405542,-23.142246513321215,26.142500214207672,356.66,-1.7811379999946553,1
-5.8758612798622805,6.997947407630984,7.82952511387194,1.1971218615661097,-13.895296714248477,-22.094994494449086,25.841558105490822,356.664,-1.777137999994693,1
-6.004746968012412,7.217378900628567,8.134169465023389,1.0342414390317438,-13.927305663412366,-22.41553233864229,25.96179516538337,356.668,-1.773137999994674,1
-5.5083313901263455,7.437984831005738,7.218441750295443,1.2200558015185006,-13.101073081859063,-23.517519109207043,26.250441198372762,356.672,-1.7691379999946548,1
-4.558584366819897,7.294046673966466,5.329636733833621,1.8100463855776294,-11.893635368202645,-24.384954859028955,26.40344480067375,356.676,-1.7651379999946926,1
-3.832173291371499,6.9575990285374,3.830270389165081,2.3550759659428238,-11.11942840609214,-24.55214945434869,26.360805768166983,356.68,-1.7611379999946735,1
-3.931256124130574,6.9421334673839405,4.019952185079546,2.306153238771605,-11.26549991709948,-24.394825643945985,26.323342793940924,356.684,-1.7571379999946544,1
-4.874023349960324,7.48871610632425,5.992467380928554,1.5532493284360227,-12.19779453608488,-24.418834368659674,26.456219439016,356.688,-1.753137999994692,1
-6.066905111101053,8.169504920670045,8.48567638637337,0.6050761366301834,-13.384549504917775,-24.425532068767538,26.616729241112722,356.692,-1.749137999994673,1
-6.774023084264158,8.192426278891123,9.87158848042798,0.2007105746634994,-14.339092306989356,-23.59499958670271,26.443389643973568,356.696,-1.745137999994654,1
-6.645370261749074,7.1489667428103845,9.36819770874207,0.704846328940992,-14.850905989359841,-21.467587565141134,25.741853035756534,356.7,-1.7411379999946917,1
-5.812117940218341,5.362119650186691,7.309645276701241,1.9104221605000888,-14.886827547701275,-18.588034006656347,24.70479240718788,356.704,-1.7371379999946726,1
-4.638838584276024,3.6208720922171844,4.5983464057090595,3.286984854923731,-14.426398737425357,-16.23198909103256,23.791023059883898,356.708,-1.7331379999946535,1
-3.4437682214164065,2.556775600037515,2.008203999836837,4.395180183216915,-13.489460409833123,-15.387660715779292,23.360729563937518,356.712,-1.7291379999946912,1
-2.4467222408865927,2.2794393872824266,-0.005181438011605536,5.066848781712836,-12.305147510297829,-16.02155248471179,23.432315504912534,356.716,-1.725137999994672,1
-1.836625204648322,2.4537178260176695,-1.154026938237538,5.335338203236782,-11.353581304566086,-17.163573119952027,23.718750538149482,356.72,-1.721137999994653,1
-1.8586914293934962,2.801650611729186,-1.0268418052664325,5.178871397320676,-11.154354750890045,-17.898888993067157,23.958254969567236,356.724,-1.7171379999946907,1
-2.644887102157815,3.3159665522811927,0.6322285466312019,4.526768049009692,-11.89322709422461,-18.0471820336774,24.110333082137696,356.728,-1.7131379999946716,1
-3.9496592307582032,4.046397425230585,3.3558601989199763,3.4955467938015605,-13.20067340383555,-18.02334364507013,24.2758718617117,356.732,-1.7091379999946525,1
-5.0754221816944725,4.709429192227029,5.713753399623872,2.5922106943394736,-14.307101280958918,-18.074714183974827,24.441844360437784,356.736,-1.7051379999946903,1
-5.315631016689275,4.840446813180872,6.214339403571998,2.4037939452159867,-14.550081153558354,-18.06275115264438,24.469883160923082,356.74,-1.7011379999946712,1
-4.447775508351364,4.156517165613716,4.354857672596323,3.1717668720954197,-13.81110174979628,-17.644315441888885,24.220050989731053,356.744,-1.697137999994652,1
-2.893220119507782,2.829021890981621,0.9992872893866959,4.589829273198684,-12.554936274709384,-16.67029024798447,23.700308188634594,356.748,-1.6931379999946898,1
-1.3412581182266914,1.2974037555127735,-2.4005652941032585,6.09100923278574,-11.436960175582193,-15.245519481300443,23.03589008091406,356.752,-1.6891379999946707,1
-0.2633921013556229,-0.026474544434719402,-4.8247118883191655,7.24137982017293,-10.832086546204076,-13.685660668771684,22.3909459289123,356.756,-1.6851379999947085,1
0.3652766587330275,-1.0266026820105005,-6.293713112201961,8.006783258972765,-10.62965529974787,-12.276066554176227,21.85397773043075,356.76,-1.6811379999946894,1
0.8431108806104384,-1.7641648886830608,-7.4047961029893505,8.579179474061432,-10.4608810188821,-11.254237994859334,21.461789650741963,356.764,-1.6771379999946703,1
1.306973924695541,-2.2154006808348727,-8.419389130120871,9.025152140344192,-10.122413208498234,-10.842743794653595,21.267820749067813,356.768,-1.673137999994708,1
1.537536757106709,-2.1859904595431683,-8.862363173311628,9.14171894397262,-9.786847542274147,-11.194410871405097,21.350356345454692,356.772,-1.669137999994689,1
1.2900438607425275,-1.629595275030461,-8.244726880683183,8.773005575605419,-9.759250116313385,-12.105964873646476,21.676487709325528,356.776,-1.6651379999946698,1
0.6753810806244976,-0.8352308922243962,-6.852808295706867,8.100668933786416,-10.07819054013452,-13.081892091179107,22.07207180483395,356.78,-1.6611379999947076,1
0.1879211119015611,-0.2569880177512529,-5.761448746164275,7.588901672138287,-10.365246557133975,-13.7424420265979,22.34930256360753,356.784,-1.6571379999946885,1
0.362893144768076,-0.21979865325642023,-6.094022977413632,7.671202597611531,-10.100780898023011,-14.041920157618277,22.422426943931715,356.788,-1.6531379999946694,1
1.4078115856558315,-0.8277815931741792,-8.28079138108993,8.506587329375016,-9.068905473671563,-14.010537894139782,22.273617427044588,356.792,-1.6491379999947071,1
3.0932681543839173,-2.0699949701853217,-11.871278988886257,9.962416382400995,-7.5769877444568925,-13.38653345397952,21.849110620723046,356.796,-1.645137999994688,1
4.938571064507768,-3.858330867809762,-15.905823976645753,11.733759282497179,-6.226080410001751,-11.764324225130705,21.082229132583013,356.8,-1.641137999994669,1
6.505918241106381,-5.94998928593434,-19.471094543926256,13.475548913547328,-5.4563920122416265,-9.130895057192296,20.02690374464081,356.804,-1.6371379999947067,1
7.4584671364850665,-7.728683652443053,-21.760555998398345,14.744364872927603,-5.323346557119699,-6.417810981206851,19.027565179755275,356.808,-1.6331379999946876,1
7.49332804563414,-8.310040886587643,-21.969145901331693,15.004681571165161,-5.658987455391269,-5.186676620918722,18.62684124743001,356.812,-1.6291379999946685,1
6.439048755109594,-7.134345355138605,-19.62686494356266,13.928872728156891,-6.329253687897089,-6.451041805358725,19.17358430869058,356.816,-1.6251379999947062,1
4.628945448255577,-4.718104058973874,-15.509243201967106,11.917052018564751,-7.2177453965379135,-9.493703990866008,20.39279918152455,356.82,-1.621137999994687,1
3.000938430585473,-2.5609558768916223,-11.809726505513568,10.114257001873037,-8.027420774201431,-12.195153941367138,21.478061665515252,356.824,-1.617137999994668,1
2.6657343481757256,-2.1968905365599904,-11.067362376841636,9.776243916635442,-8.246955267024335,-12.575794592605163,21.645024508219954,356.828,-1.6131379999947058,1
4.106000038937966,-4.062866299351972,-14.329999432336434,11.353570844690623,-7.502678668409499,-10.278855514761313,20.71482903123063,356.832,-1.6091379999946867,1
6.755579815191727,-7.2725043345696205,-20.27816657497595,14.162867991346015,-5.986324430372938,-6.542415075741748,19.160962609122503,356.836,-1.6051379999946676,1
9.310138343375431,-10.306272782083312,-25.998327110287182,16.846242526844662,-4.4842733868190585,-3.07318963518353,17.705682044152994,356.84,-1.6011379999947053,1
10.732635306099722,-12.207478660205695,-29.234794226845477,18.42824245729625,-3.78759948719735,-0.6768799970526526,16.745874607905225,356.844,-1.5971379999946862,1
11.020905949058674,-13.114007722006109,-30.016674668154668,18.964783424803233,-3.9902163894403286,0.951508474182623,16.18370093155661,356.848,-1.593137999994667,1
11.043487858263198,-13.792102504242674,-30.22468001870091,19.2583205288001,-4.406500391576891,2.4100231783433617,15.711451349113851,356.852,-1.5891379999947048,1
11.505231200246284,-14.589992174220267,-31.31893545925372,19.846724235341682,-4.299581431235885,3.584155343398776,15.27239828572315,356.856,-1.5851379999946857,1
12.221197125969498,-15.10938540754224,-32.84213710601603,20.461713284196946,-3.6603629855204876,3.8310577927197493,15.097917296192579,356.86,-1.5811379999946666,1
12.388913839058173,-14.781646940290523,-33.090310662739526,20.419591525513535,-3.2142092804068776,2.903622297130869,15.374039221734348,356.864,-1.5771379999947044,1
11.599972090752637,-13.719479318953631,-31.2934417017666,19.538986042109155,-3.595501324326623,1.5576496851863137,15.91181452699874,356.868,-1.5731379999946853,1
10.481192627432085,-12.86223260869579,-28.90223139835358,18.559088644737002,-4.564254697224768,1.071787211521221,16.216650220583833,356.872,-1.5691379999946662,1
10.271002773896017,-13.279443380659668,-28.592774744096644,18.614559860863526,-5.127664381211141,2.248284629389841,15.866035241818084,356.876,-1.565137999994704,1
11.596615090756426,-15.15894235192458,-31.634865071082725,20.133464450581496,-4.549529844085241,4.71768377640176,14.895573949352894,356.88,-1.5611379999946848,1
13.694519274498537,-17.484006329155704,-36.29226412167926,22.268225488005783,-3.206243077469468,7.201966218430502,13.817802547369633,356.884,-1.5571379999946657,1
14.995205151963896,-18.840610485196763,-39.15929044732628,23.556581305492948,-2.3174046381090903,8.556028593613373,13.209490519561955,356.888,-1.5531379999947035,1
14.601315236930638,-18.65507945456371,-38.34552418424503,23.25976153772691,-2.735169881124046,8.639902287018097,13.234794458257179,356.892,-1.5491379999946844,1
13.183918535933003,-17.672663662863577,-35.34112216127771,22.061253897067143,-4.030855269931125,8.251578475875345,13.547890185196986,356.896,-1.5451379999946653,1
12.38108209179408,-17.232932722313258,-33.667597436148384,21.430757703230675,-4.841740820732781,8.287531949413568,13.642899234756168,356.9,-1.541137999994703,1
13.297627580473673,-18.135165604633396,-35.674900042113165,22.316360663063303,-4.179979559753776,9.123923558168798,13.252133404794634,356.904,-1.537137999994684,1
15.477510785071109,-20.00232555680509,-40.381637068956245,24.307196118404185,-2.422256830549089,10.502192611336836,12.519319941498367,356.908,-1.5331379999946648,1
17.319185307999085,-21.681387119196263,-44.382683012035905,26.031241746998976,-1.0042510949822134,11.889350284079754,11.828543887136622,356.912,-1.5291379999947026,1
17.512279870025644,-22.24758490090391,-44.8964975340484,26.373639048221555,-1.1129096870894015,12.890153788004897,11.480919415789682,356.916,-1.5251379999946835,1
16.164885491208437,-21.782623785558155,-42.153837428360404,25.42859771093542,-2.653898901857059,13.549093450005284,11.447783463626577,356.92,-1.5211379999946644,1
14.502545450993763,-21.088301508513513,-38.7409232951572,24.212662412072646,-4.475489211994387,14.097481604181658,11.492024548417133,356.924,-1.5171379999947021,1
13.614259475752558,-20.83050919812883,-36.944573752153026,23.60982449611173,-5.5235515836333215,14.638749806528594,11.435800755522388,356.928,-1.513137999994683,1
13.517737385930468,-20.936644969864627,-36.78180947189797,23.599895369994677,-5.725914838591177,14.991667683666943,11.335068840761789,356.932,-1.509137999994664,1
13.453431047695041,-20.89081713789278,-36.64519807069854,23.544999416811997,-5.783870608932059,14.971295433987736,11.350159919028709,356.936,-1.5051379999947017,1
12.870891566703799,-20.37239569482894,-35.382694254433,23.0049210945144,-6.240764193864546,14.560327784914614,11.559713696993759,356.94,-1.5011379999946826,1
12.13100199105,-19.735549328959785,-33.78439785916434,22.32791309187067,-6.835320368597127,14.085722474827076,11.810629998973592,356.944,-1.4971379999946635,1
12.16455726582425,-19.744713235440983,-33.852116687285154,22.350447562404927,-6.795350716239845,14.064016868241149,11.813158942495747,356.948,-1.4931379999947012,1
13.487758460593298,-20.8510685220762,-36.70260005581769,23.547701168379263,-5.710580953653973,14.84139312775386,11.387396774821504,356.952,-1.489137999994682,1
15.502410549545901,-22.574805409288526,-41.052116830020225,25.386849572343422,-4.084839950226336,16.11103563221703,10.711466435428804,356.956,-1.485137999994663,1
16.912569706338264,-23.826223928318168,-44.10741925035153,26.69276036170415,-2.9765051496595394,17.098131210464548,10.206687049822337,356.96,-1.4811379999947007,1
16.78547442634682,-23.780133006002718,-43.84817341675951,26.602692751304048,-3.120388994219976,17.155391957090742,10.205136282240648,356.964,-1.4771379999946816,1
15.323051896880367,-22.603252850799578,-40.70886616321784,25.298477387931776,-4.3495550190001255,16.396812095592384,10.643332652613065,356.968,-1.4731379999946626,1
13.65005331635732,-21.34216216193386,-37.138134489340736,23.84178448296431,-5.811938394031962,15.715903732383753,11.084493513601217,356.972,-1.4691379999947003,1
12.933591079036875,-21.157478298266078,-35.69487681847577,23.36518453690882,-6.672601330383623,16.203430232826978,11.022750598352848,356.976,-1.4651379999946812,1
13.523938500397527,-22.406354028792503,-37.14920300981074,24.212241811749873,-6.686785788641698,18.20610704317324,10.300055471924356,356.98,-1.461137999994662,1
14.822909921784241,-24.370833988473706,-40.15983076742196,25.75147621570514,-6.201234360839929,20.895000816834962,9.26251216241132,356.984,-1.4571379999946998,1
15.90068519787855,-25.880591816546126,-42.6287348467726,26.97880388848845,-5.719085527085326,22.86249155848671,8.486431545550419,356.988,-1.4531379999946807,1
16.287341536065846,-26.299244846579715,-43.48473542471695,27.36816404628945,-5.464999618099004,23.29872043400082,8.294753873039626,356.992,-1.4491379999946616,1
16.208458189655534,-25.936091392190527,-43.24295764732852,27.17366361955807,-5.333646510864387,22.600806345863127,8.529767395306768,356.996,-1.4451379999946994,1
16.149503289830477,-25.538693732650387,-43.031804148490195,26.97610467384289,-5.152379388438933,21.802993047550274,8.794276258355943,357.0,-1.4411379999946803,1
16.289648997906962,-25.503938669160036,-43.29698208111784,27.039966352156355,-4.93727617231385,21.552231440197552,8.856350132330912,357.004,-1.4371379999946612,1
16.28456897574108,-25.456975674200006,-43.27571246555094,27.017673330970272,-4.91326700289627,21.4555982890224,8.888114546913497,357.008,-1.433137999994699,1
15.598860995597487,-24.642065798505616,-41.74013925613946,26.297151797375378,-5.316079549968398,20.5231212768813,9.279150534759326,357.012,-1.4291379999946798,1
14.104469918977276,-22.773751246810097,-38.37127818964229,24.688631185300398,-6.133034943078223,18.288473162155384,10.19649011309757,357.016,-1.4251379999946607,1
12.45671343967157,-20.645703558897093,-34.640243169130336,22.886863656067316,-6.988986264346464,15.675422499938515,11.255933396696506,357.02,-1.4211379999946985,1
11.739710864539445,-19.661045798359435,-33.00254456338327,22.078541962186048,-7.322752220085145,14.409773797233617,11.75831595786875,357.024,-1.4171379999946794,1
12.678204768229394,-20.737940714162153,-35.094915756468495,23.04876185482316,-6.746095056569446,15.601752371461785,11.250232532685768,357.028,-1.4131379999946603,1
15.020891868188404,-23.491322900564693,-40.33369952458034,25.497662128690763,-5.349646278542293,18.72017072670263,9.935943980105558,357.032,-1.409137999994698,1
17.666751034948252,-26.51055893092379,-46.22857574641602,28.226000241776386,-3.712810811168241,22.04381165163312,8.515382560150314,357.036,-1.405137999994679,1
19.35026153808623,-28.3156678926554,-49.95133911600554,29.91394375676923,-2.594830140916125,23.904322167369912,7.693309687351719,357.04,-1.4011379999946598,1
19.516869834766283,-28.415205890062193,-50.30063897482997,30.048218774678876,-2.4320146783264063,23.915020476588772,7.667750457184659,357.044,-1.3971379999946976,1
18.64149410602283,-27.496859916864388,-48.36980902344202,29.1789304034436,-3.0266927271517767,22.992021842409617,8.08091531558214,357.048,-1.3931379999946785,1
17.780505079067186,-26.719235198424595,-46.50108151099782,28.375975070349426,-3.6944578617795685,22.359617882800503,8.39867653898487,357.052,-1.3891379999946594,1
17.637933631581333,-26.623200483035887,-46.19955107740126,28.256574102704406,-3.8266225842069637,22.32665985015989,8.428206560198499,357.056,-1.3851379999946971,1
18.057478182555354,-26.830999664831047,-47.06878109107229,28.57694539688531,-3.388364877543058,22.259651079537136,8.394070974468589,357.06,-1.381137999994678,1
18.25722471133876,-26.57710747074926,-47.397331965601396,28.58330342317492,-2.9469958411273076,21.45421853273286,8.62668861023142,357.064,-1.377137999994659,1
17.59483818535081,-25.543276844593038,-45.85436274272911,27.785108722218588,-3.173434675074719,20.012734481506318,9.178392873321176,357.068,-1.3731379999946967,1
16.138580349601423,-24.139738588320196,-42.6722971847769,26.390434001009652,-4.244650496954409,18.74955478329597,9.778117136144488,357.072,-1.3691379999946776,1
14.64589045584431,-23.132590455818534,-39.5149358632991,25.139634737262984,-5.627271707367395,18.40079330016288,10.088479533214862,357.076,-1.3651379999946585,1
13.890551083846898,-22.878750349577096,-37.97906793501688,24.6126743456044,-6.495633006604959,18.785128197724568,10.065097664023071,357.08,-1.3611379999946962,1
13.969065677162185,-22.926838360184586,-38.143961769904195,24.67644085249384,-6.419684397797381,18.79275784551555,10.05222015271457,357.084,-1.357137999994677,1
14.258341221538677,-22.425847577461283,-38.58754925427156,24.630423647021896,-5.692566915339742,17.33407366159685,10.483125216915152,357.088,-1.353137999994658,1
14.039830421076946,-20.951601892813258,-37.80460746738454,23.89763955197245,-5.0198410602809656,14.374140842072524,11.464439605356837,357.092,-1.3491379999946957,1
13.134297699428503,-18.902525364730042,-35.541564354881274,22.54306218107809,-4.910078215092246,11.009712564342365,12.66709548985461,357.096,-1.3451379999946766,1
11.954912178327668,-17.085167907705465,-32.79994673688688,21.131558217573076,-5.328680598777654,8.494411516036559,13.632913331432697,357.1,-1.3411379999946575,1
11.057267083161017,-16.025402789940824,-30.79145782090754,20.191245835201883,-5.860620643472466,7.2891067989674045,14.139861536990512,357.104,-1.3371379999946953,1
10.618046380626671,-15.55564682077535,-29.820492242545043,19.75136127228897,-6.153081420852102,6.806314843453248,14.353497987803605,357.108,-1.3331379999946762,1
10.34824525612705,-15.064354140110124,-29.17504578171971,19.397161742264252,-6.199014546825923,6.065277476715209,14.627729993549243,357.112,-1.329137999994657,1
9.883104207224713,-14.126761316636353,-28.040385729909126,18.74898327045847,-6.21844887388161,4.589094831939019,15.164413610804896,357.116,-1.3251379999946948,1
9.270883200048562,-13.01816870090407,-26.577272042280857,17.947829012336527,-6.326785744769712,2.9212178738569934,15.782296401712586,357.12,-1.3211379999946757,1
8.89746284683152,-12.390567037062805,-25.69659818485995,17.47929508324114,-6.424905302365938,2.0104070886902115,16.12490550552586,357.124,-1.3171379999946566,1
8.989225821821965,-12.54917659763577,-25.914071840706875,17.59624757506387,-6.403685954464372,2.243840016025276,16.037620979895948,357.128,-1.3131379999946944,1
9.236250117877784,-13.02327029741623,-26.510897767743156,17.930602705849996,-6.377642462127081,2.975541425115055,15.76941627844366,357.132,-1.3091379999946753,1
9.034898338396076,-12.987246804797946,-26.10912888944436,17.803239529481402,-6.629993373143157,3.147367581520915,15.740863617987083,357.136,-1.3051379999946562,1
8.022447267743368,-11.964275553362768,-23.88542081192452,16.814060359544182,-7.343633342978537,2.1657311816492673,16.191090899329016,357.14,-1.301137999994694,1
6.487587758092709,-10.332875201653023,-20.494832740613436,15.281092162015229,-8.372343782784446,0.5008968635173813,16.93047494142558,357.144,-1.2971379999946748,1
5.187708110775279,-9.059099148015473,-17.64940317551996,14.027501293354698,-9.31470749401232,-0.6725789226023513,17.480579336020114,357.148,-1.2931379999946557,1
4.758733886311301,-8.931243525836997,-16.781091015962573,13.73498397174018,-9.818624269655924,-0.41855775933443373,17.455798712738428,357.152,-1.2891379999946935,1
5.182894872846623,-9.82635671447295,-17.825484485199393,14.342679491691374,-9.827367082900581,1.0155379958893025,16.938095922145607,357.156,-1.2851379999946744,1
5.926156782681802,-10.886833884869002,-19.53277279038444,15.197076060842955,-9.507600195674621,2.4147032169792557,16.38927081042405,357.16,-1.2811379999946553,1
6.483486410448362,-11.286639812151208,-20.71739005446754,15.673935624413486,-9.007041420522159,2.5970217098534785,16.256627542425576,357.164,-1.277137999994693,1
6.78353573663384,-10.899955440175118,-21.209641626490093,15.681290559830904,-8.340542959895334,1.3755210225965668,16.609792707499242,357.168,-1.273137999994674,1
7.062459363738145,-10.23705481931884,-21.59388086945635,15.56241523739562,-7.520830216321371,-0.4252370215766907,17.152128325539483,357.172,-1.2691379999946548,1
7.502770212068821,-9.921999879202156,-22.3772539030911,15.677770400602139,-6.709237634598844,-1.6644081379214626,17.492358942142587,357.176,-1.2651379999946926,1
7.982074856817767,-10.131885682601549,-23.363646530447877,16.032377447856053,-6.190408015312055,-1.801279300527149,17.472767224214774,357.18,-1.2611379999946735,1
8.192659314684022,-10.517093039476318,-23.867850502007112,16.30955921619858,-6.155707293728379,-1.219061300099996,17.257493604429175,357.184,-1.2571379999946544,1
7.993205894944549,-10.65399150301008,-23.511589678371294,16.254895707193104,-6.519508962495992,-0.6704887800646776,17.10747732180436,357.188,-1.253137999994692,1
7.6044382382352875,-10.515081632093494,-22.7190928449814,15.980250927748179,-6.96099999316316,-0.4907839781474869,17.10126928240205,357.192,-1.249137999994673,1
7.388928220874197,-10.40674867695318,-22.27220541897647,15.815024513294954,-7.185072822561047,-0.4598522993438012,17.119926483665324,357.196,-1.245137999994654,1
7.435869572845818,-10.453328096904343,-22.37510017056037,15.860534868245317,-7.151425139874468,-0.41620248675388816,17.099651453001908,357.2,-1.2411379999946917,1
7.470372778791121,-10.347467708706878,-22.41686342600354,15.835945437168993,-7.034289150151999,-0.6912660099081064,17.18356807881037,357.204,-1.2371379999946726,1
7.13063672210175,-9.579321304605784,-21.567969609267617,15.32799545148366,-6.993518955632815,-1.9521616298812887,17.63433932580205,357.208,-1.2331379999946535,1
6.342681059833167,-7.974971189834124,-19.641958096426453,14.223320629591507,-7.015852058912008,-4.4880335633682,18.554813219116078,357.212,-1.2291379999946912,1
5.421046803942191,-5.9907626327399335,-17.363164260108334,12.88662588080428,-6.9709539222651955,-7.690190437715633,19.707398568082603,357.216,-1.225137999994672,1
4.847895665026959,-4.535499164447925,-15.89251479247141,11.963667297698967,-6.797061499400937,-10.166767635006549,20.580280128600897,357.22,-1.221137999994653,1
4.811561335888922,-4.22059492625518,-15.74546110983153,11.812916231540688,-6.639185202561999,-10.811899995530421,20.792663666749522,357.224,-1.2171379999946907,1
4.978472685561179,-4.786535777268172,-16.20810104742906,12.140585834421998,-6.783579005222797,-9.779046020464447,20.438203330401326,357.228,-1.2131379999946716,1
4.723808326389817,-5.222618408945529,-15.816387422436051,12.17903994893743,-7.4204232513135215,-8.505776917278018,20.062357724645857,357.232,-1.2091379999946525,1
3.706241709148362,-4.621852037857241,-13.68475728613167,11.361918790839493,-8.419551325913808,-8.555407087695771,20.213407237610628,357.236,-1.2051379999946903,1
2.188441565389874,-2.874130364691068,-10.299351368339572,9.790286311421546,-9.348146563961693,-10.496511273920632,21.039411694101513,357.24,-1.2011379999946712,1
0.925954273937099,-0.8057371018554514,-7.334824534339222,8.228375320895088,-9.715129825418579,-13.458667252130446,22.16002911891148,357.244,-1.197137999994652,1
0.6313834359944426,0.45327402106904563,-6.455436217863443,7.542286916505594,-9.288666071914902,-15.851983483078897,22.969141399288127,357.248,-1.1931379999946898,1
1.4715522024042522,0.2872525361534744,-8.135671013383323,8.080235573306663,-8.246056971469136,-16.534513669814928,23.07720134280297,357.252,-1.1891379999946707,1
2.910938894592536,-0.9233982297933792,-11.23817353732287,9.385578018798663,-7.070753715251411,-15.673202337767918,22.609010906744416,357.256,-1.1851379999947085,1
4.1869647977000435,-2.2610349915619334,-14.052475726618576,10.652305215487477,-6.2032208507145095,-14.33000731453685,22.007468870244384,357.26,-1.1811379999946894,1
4.8964335751940045,-3.0752536807582986,-15.634265504918638,11.385808926001335,-5.767369568355373,-13.428642052765403,21.623288305602426,357.264,-1.1771379999946703,1
5.181394148261748,-3.423981139006578,-16.274841059046125,11.689410673238816,-5.606616908720919,-13.019044672556717,21.453678957829858,357.268,-1.173137999994708,1
5.328779533884291,-3.7169254377062773,-16.633369855336785,11.893077227225254,-5.597726345953475,-12.560381877135445,21.286546755022528,357.272,-1.169137999994689,1
5.306942950242923,-4.090258816187812,-16.680992292260918,12.03555095850157,-5.873909650834366,-11.714692947932404,21.017359798471066,357.276,-1.1651379999946698,1
4.692284766933739,-4.101973132481983,-15.4839445958532,11.697166045054523,-6.72450824739639,-10.923393586736205,20.8443687504796,357.28,-1.1611379999947076,1
3.138484195808139,-3.1447281959299227,-12.21935222239385,10.432915619256345,-8.223844275943053,-11.086628861374379,21.103153740576804,357.284,-1.1571379999946885,1
0.9374188551125727,-1.213253968561124,-7.4557179968222025,8.403606948182965,-9.968194074491516,-12.579514933865612,21.87565517044499,357.288,-1.1531379999946694,1
-0.9470734931230137,0.7823617142775019,-3.294563039055308,6.52450620589671,-11.236126030028904,-14.607346308083294,22.778240950116373,357.292,-1.1491379999947071,1
-1.5913830012211971,1.6757448997572724,-1.8208339609335042,5.794591854953168,-11.530410871493128,-15.7634326407353,23.235723719672787,357.296,-1.145137999994688,1
-0.9358979101092605,1.1173843381483408,-3.2353904344143456,6.391950854595036,-10.999830590634492,-15.355764111612478,23.01754785402723,357.3,-1.141137999994669,1
0.1552218455440875,-0.10358313461520179,-5.660532045142127,7.507087832096024,-10.308905508441613,-14.038033960863842,22.448744971422723,357.304,-1.1371379999947067,1
0.6517658301530275,-0.7644904902919284,-6.789607938033364,8.058174745344296,-10.063915631672174,-13.207566951277167,22.115640435777344,357.308,-1.1331379999946876,1
0.2027207151687451,-0.29316029036512986,-5.799083484276306,7.612151838726725,-10.36881017515376,-13.68157295158469,22.327754347484476,357.312,-1.1291379999946685,1
-0.7069119030834273,0.8049146744324941,-3.757932577639065,6.6492740417468985,-10.891920557778963,-14.955935844934494,22.858512167256603,357.316,-1.1251379999947062,1
-1.3203157235988914,1.4602413038854796,-2.4020826827016792,6.03524217618712,-11.300839571993148,-15.628607374200252,23.1563618724214,357.32,-1.121137999994687,1
-1.3728884069776852,1.1290758987487393,-2.3795112057573964,6.143082516963282,-11.591358176281446,-14.837081914631534,22.908681287936055,357.324,-1.117137999994668,1
-1.2145643312936676,0.2512140569826166,-2.900791806590168,6.59518209550369,-11.95326098649738,-13.109681730023064,22.331902701917965,357.328,-1.1131379999947058,1
-1.2796089835194848,-0.2595480560622835,-2.897289500595566,6.770462683890465,-12.379338638750237,-11.90887664730467,21.954199142341796,357.332,-1.1091379999946867,1
-1.517306057017585,0.01920069098336943,-2.365894122887449,6.522245243614912,-12.521435305007428,-12.223925300085954,22.087114850400102,357.336,-1.1051379999946676,1
-1.5386554263424772,0.7813490248155815,-2.1399756715064675,6.194573993184905,-12.048022025859206,-13.868252734079556,22.618982839787208,357.34,-1.1011379999947053,1
-1.15450782497645,1.4248329261559944,-2.7343173475077656,6.142502069002332,-11.09682377857639,-15.75750870445177,23.175822660354076,357.344,-1.0971379999946862,1
-0.6858587980578592,1.6576733856183778,-3.59288415758024,6.307742381998564,-10.300597565821217,-16.85173226944309,23.465657023285456,357.348,-1.093137999994667,1
-0.6227687997849775,1.5570261560048475,-3.7403732029010204,6.384670153244186,-10.280466917721787,-16.70965989686283,23.411572508021553,357.352,-1.0891379999947048,1
-1.101391977257404,1.3031022308733242,-2.8674324965891604,6.2225947034522004,-11.104276543259433,-15.556789540882669,23.104193623663164,357.356,-1.0851379999946857,1
-1.680730652522296,0.8388883140422212,-1.848719821614603,6.091398339540911,-12.204896674507259,-13.817432185686263,22.6214926807473,357.36,-1.0811379999946666,1
-1.7824477157869925,0.038165798674964564,-1.8437241765486214,6.366327554091596,-12.872511569076522,-11.935244093530542,22.029434202176063,357.364,-1.0771379999947044,1
-1.288520282663465,-0.9118988552041878,-3.037593323627015,7.035747882880745,-12.82182890668133,-10.467574701654044,21.49166818694929,357.368,-1.0731379999946853,1
-0.6678950272762298,-1.435734531820215,-4.375753547229463,7.599337155220851,-12.316279890609712,-10.092176556043503,21.28850239775826,357.372,-1.0691379999946662,1
-0.4218618847186875,-1.1224832954942368,-4.780311430238792,7.6069508268702135,-11.772287285238825,-11.08540131062607,21.575394379446333,357.376,-1.065137999994704,1
-0.5579265215177321,-0.20997653346779735,-4.29410858896164,7.152928392657787,-11.357009703348155,-12.916482705677236,22.18257566031474,357.38,-1.0611379999946848,1
-0.6695832160688165,0.5796580911522262,-3.8852558806478275,6.763440382791905,-10.989304496449485,-14.508583945720618,22.709629064942604,357.384,-1.0571379999946657,1
-0.46430655632794926,0.6908029325607582,-4.259109996134849,6.832025141460516,-10.634503789201581,-15.007948109274238,22.843040376917354,357.388,-1.0531379999947035,1
-0.08078116716437893,0.16797600805030957,-5.134181677039449,7.262794961542435,-10.453421172524424,-14.339430374554096,22.577043421689574,357.392,-1.0491379999946844,1
0.0984631516440263,-0.48939468849155693,-5.642999211614927,7.635229889580895,-10.641207233210634,-13.121489189935053,22.161397282027245,357.396,-1.0451379999946653,1
-0.10591328264536196,-0.8476413030343721,-5.33063695466789,7.669519266681042,-11.157754129394258,-12.08150490458706,21.85393130764789,357.4,-1.041137999994703,1
-0.46770176381778067,-0.9367388064814112,-4.6459250317646745,7.50440106522034,-11.71263557590048,-11.435526086496491,21.69412619924055,357.404,-1.037137999994684,1
-0.6820269106042522,-1.0225437754031828,-4.248281612023675,7.420265423028853,-12.063130954346773,-10.980445820420922,21.57616364977002,357.408,-1.0331379999946648,1
-0.79946353349545,-1.1283445539131078,-4.044608910583419,7.398518399168172,-12.293953065788001,-10.602211272281332,21.4700629368931,357.412,-1.0291379999947026,1
-1.1906379993226983,-0.930166006790593,-3.2330860815300606,7.097975274140426,-12.699652742070844,-10.549448122951318,21.505015678525087,357.416,-1.0251379999946835,1
-1.9545792029870728,-0.3135548499667902,-1.592729967272118,6.415919553060077,-13.340537094431532,-10.949731464346062,21.735213025943448,357.42,-1.0211379999946644,1
-2.581913156832147,0.26630005929791073,-0.22793151515820842,5.825375877112392,-13.818337109049885,-11.43958881600772,21.976094660637596,357.424,-1.0171379999947021,1
-2.3046864802503584,0.038422534470778716,-0.8241953330659832,6.074592112771592,-13.588480970883024,-11.285307308353216,21.889655445310122,357.428,-1.013137999994683,1
-0.8763313199106886,-1.3424256628899245,-3.9463067310470237,7.444285163636987,-12.540562040585261,-10.037117361972397,21.29845795276832,357.432,-1.009137999994664,1
1.0937180650709148,-3.4473389214603993,-8.300899972515024,9.416443481837623,-11.227396199974805,-7.8762336553568355,20.341707202398503,357.436,-1.0051379999947017,1
2.5605294956682867,-5.353677346600684,-11.625114487413668,11.0253158958984,-10.473339756998048,-5.523869534313661,19.390155733759322,357.44,-1.0011379999946826,1
2.9799477563107835,-6.503298793009074,-12.721774609112526,11.735802830894553,-10.656451946934952,-3.5258869649947693,18.691661726845936,357.444,-0.9971379999946635,1
2.8005096698281315,-7.190445107958436,-12.537603112571013,11.920277678681398,-11.355733262508751,-1.7958921084065564,18.158886242935278,357.448,-0.9931379999947012,1
3.050487299054794,-8.232004231808432,-13.277373675342838,12.491376430492334,-11.699922476032858,0.1762315269581884,17.49120512667881,357.452,-0.9891379999946821,1
4.329667271900666,-10.00948623745233,-16.20416138628757,13.942087766531246,-11.118172742627575,2.4798065734153467,16.58025875452023,357.456,-0.985137999994663,1
6.326147539976082,-12.093800760761628,-20.60537103200874,15.920471824362902,-9.755176314462183,4.562607727290817,15.645121015602722,357.46,-0.9811379999947007,1
8.209269174541266,-13.717076722794891,-24.673840595696433,17.644551054824145,-8.24354028304031,5.775835616360474,15.004801755805762,357.464,-0.9771379999946816,1
9.433682904797278,-14.585959668458193,-27.274073409422822,18.688257601137707,-7.137607012122141,6.155631311925068,14.720068272143058,357.468,-0.9731379999946626,1
10.085945789981777,-15.1075180156451,-28.673443199145524,19.268570518002978,-6.5871716996282785,6.486628908139806,14.52698769829428,357.472,-0.9691379999947003,1
10.598985837776702,-15.927295523372266,-29.873126558064687,19.894687261062998,-6.424346819804662,7.644852488511297,14.086243313890547,357.476,-0.9651379999946812,1
11.173297197992401,-17.189381164120398,-31.299341987708573,20.738262377369285,-6.469234151673574,9.696464954562591,13.349932773578216,357.48,-0.9611379999946621,1
11.586747409243669,-18.34996595870472,-32.387002114817264,21.449958617849948,-6.667761328513573,11.725917160754575,12.642106214187312,357.484,-0.9571379999946998,1
11.562739676035337,-18.77156031057101,-32.44205286668443,21.61121390151993,-6.978753339773799,12.68011695168821,12.338295987785738,357.488,-0.9531379999946807,1
11.250587277483103,-18.48726421704351,-31.76397159045973,21.319120844200974,-7.219290697776465,12.445647813656244,12.455170569939353,357.492,-0.9491379999946616,1
11.1924052239667,-18.249318462704778,-31.592872764195583,21.188052567900485,-7.142133306702304,11.99645132130536,12.607415420430065,357.496,-0.9451379999946994,1
11.785080745712715,-18.769188233380188,-32.87551335224979,21.73439109345255,-6.672295582310582,12.397968823746771,12.399556505028473,357.5,-0.9411379999946803,1
12.869323493776966,-20.028603838492646,-35.296524770360584,22.861616426021516,-6.016160038795829,13.808557949833231,11.801790778017308,357.504,-0.9371379999946612,1
13.830663692032402,-21.265951312256878,-37.47228230241018,23.91106782347453,-5.514003594264481,15.323852496264784,11.186653197159794,357.508,-0.9331379999946989,1
14.103449931140245,-21.658148936298996,-38.09960073675997,24.22588035850402,-5.398617000401808,15.843917406775192,10.983118977041315,357.512,-0.9291379999946798,1
13.579756985726396,-21.00775810489791,-36.920069394628,23.663989771576457,-5.687772241428029,15.070323329900654,11.30152965375044,357.516,-0.9251379999946607,1
12.638444305061565,-19.893225875719835,-34.813097177622275,22.676603107430726,-6.243470351475662,13.79934045661731,11.83540553570818,357.52,-0.9211379999946985,1
11.728215866012324,-19.012338520898673,-32.82328621827112,21.803370927860055,-6.9106479773974465,13.00187788935086,12.212808033344027,357.524,-0.9171379999946794,1
11.008513747315734,-18.503394372929936,-31.29531708482957,21.19062444672999,-7.561881704639348,12.782537620163128,12.37891734818999,357.528,-0.9131379999946603,1
10.352017401045984,-17.891932624935144,-29.86594982099886,20.57070152841206,-8.058824812171832,12.259710631700214,12.634277696947557,357.532,-0.909137999994698,1
9.690037971966946,-16.794820038528087,-28.308477479072533,19.74651716845449,-8.24296658411197,10.67898128062182,13.230727680669302,357.536,-0.9051379999946789,1
9.199222747757453,-15.459830751351195,-27.02763180583907,18.919364900899197,-8.035497183940713,8.363533549787642,14.040838542686668,357.54,-0.9011379999946598,1
9.239718966798472,-14.753356339850095,-26.935901304075244,18.649294591644026,-7.513996701860395,6.764229860736806,14.55001092660641,357.544,-0.8971379999946976,1
10.075235123036501,-15.49197300955286,-28.745473179190995,19.42186475223362,-6.855433662200392,7.342842243626296,14.252937732047807,357.548,-0.8931379999946785,1
11.638194110071623,-17.758927871386938,-32.344553784159416,21.23382723263705,-6.207382817859609,10.3660540728991,13.072789057798177,357.552,-0.8891379999946594,1
13.42891631940312,-20.653173731232517,-36.53989460902589,23.432856940174112,-5.660745103299401,14.480825844589367,11.511214339391225,357.556,-0.8851379999946971,1
14.784223647242019,-22.92694076923189,-39.735263404871255,25.131684585617077,-5.30193718401722,17.77762309140077,10.270610033860535,357.56,-0.881137999994678,1
15.273914649321007,-23.86862245936869,-40.9188360761625,25.79526623671552,-5.251534737907505,19.232190716518392,9.737621670883827,357.564,-0.8771379999946589,1
14.960909897338569,-23.728309388266666,-40.27389744977025,25.562347722446567,-5.588207646329046,19.314449032524784,9.752707832056107,357.568,-0.8731379999946967,1
14.287489295055314,-23.301700410567292,-38.85617861230851,25.009556327584505,-6.230281896662552,19.217970723695018,9.873144573203568,357.572,-0.8691379999946776,1
13.74727498443394,-23.221065607626674,-37.7821289118349,24.67448325280999,-6.917886037443287,19.71407840118825,9.785243918472716,357.576,-0.8651379999946585,1
13.5103697288446,-23.467259542325248,-37.379179185855634,24.644185713584505,-7.405132785057358,20.54891826591312,9.548097804896022,357.58,-0.8611379999946962,1
13.343289398578838,-23.521310095614005,-37.0660864482713,24.573277077514145,-7.669897778902413,20.87553267080973,9.465195175885027,357.584,-0.8571379999946771,1
12.914340974013355,-22.981853253300535,-36.098323943989264,24.1102524975943,-7.902299793424889,20.22713465590017,9.730748863206898,357.588,-0.853137999994658,1
12.235410236148663,-22.06945670884978,-34.55241416569782,23.353127909274296,-8.231519623489095,19.07248792061015,10.192364432003624,357.592,-0.8491379999946957,1
11.746863770027032,-21.465771356170084,-33.45278317634925,22.83021339773026,-8.503284470742285,18.357511697081353,10.487250138422999,357.596,-0.8451379999946766,1
11.930740905711037,-21.66237513845646,-33.85925842126514,23.014344939091263,-8.380810067208655,18.559505236495045,10.397852545632919,357.6,-0.8411379999946575,1
12.871599495117009,-22.570073769064855,-35.91534413314037,23.915789241109064,-7.68931362799798,19.377595498845807,10.009747295131323,357.604,-0.8371379999946953,1
14.149107534941265,-23.65696802768893,-38.671924981450964,25.079464350333925,-6.654366362050544,20.169221063958968,9.585466421956262,357.608,-0.8331379999946762,1
15.163752814073456,-24.44465047423574,-40.84303754504381,25.97239135858719,-5.782528316162377,20.632281457904668,9.301790704876616,357.612,-0.8291379999946571,1
15.599991460606864,-24.86207431451972,-41.79553102818503,26.388930078006,-5.459640143622254,21.004055847707086,9.124268100007077,357.616,-0.8251379999946948,1
15.647621631974632,-25.228990940350517,-41.97720892516204,26.56753711511719,-5.636332365080956,21.74914914215335,8.878224341348359,357.62,-0.8211379999946757,1
15.707267632532053,-25.780197536366643,-42.22689338592001,26.829203264570058,-5.918099388503999,22.88330952639,8.505409887298542,357.624,-0.8171379999946566,1
15.966955394898461,-26.361124219245156,-42.87426563939074,27.214889620327938,-5.9451543792040695,23.833456037500742,8.165243185112837,357.628,-0.8131379999946944,1
16.263695244359003,-26.57863130800168,-43.50611433475388,27.47070606821653,-5.6817000815501135,23.940696017020546,8.091348394709584,357.632,-0.8091379999946753,1
16.359935043494946,-26.30270019036307,-43.627281131146795,27.41013329259626,-5.367732190895123,23.215873527140474,8.311771649173274,357.636,-0.8051379999946562,1
16.163246624472556,-25.754387539741884,-43.11077457159025,27.073138710969097,-5.275798281804066,22.258757561570313,8.645817496124224,357.64,-0.8011379999946939,1
15.814073242574668,-25.317598186998843,-42.32356050994753,26.69719615154165,-5.466522180194272,21.7360782397654,8.8603332432589,357.644,-0.7971379999946748,1
15.563506571750917,-25.23140044229302,-41.81358966759271,26.521563730426145,-5.7532674071026175,21.859205255348193,8.853981959463082,357.648,-0.7931379999946557,1
15.657706508038398,-25.554985475067234,-42.0757017993561,26.708224518840524,-5.837518986122273,22.45129193806795,8.650983295598712,357.652,-0.7891379999946935,1
16.211026215925845,-26.216602035784913,-43.315781513190885,27.291310002200696,-5.515141121196239,23.212594059028977,8.332594393016485,357.656,-0.7851379999946744,1
17.207740084157756,-27.179632070128548,-45.49427863931511,28.24686822938919,-4.783545992381434,24.082418653358282,7.920429734919875,357.66,-0.7811379999946553,1
18.43627809507821,-28.342459104962014,-48.17362070511955,29.414655525892783,-3.8658335453530457,25.10151483664591,7.429464897817741,357.664,-0.777137999994693,1
19.457140325083866,-29.363381899069893,-50.4132530838757,30.4076830112338,-3.1393083711275853,26.068183311188026,6.982936706567555,357.668,-0.7731379999946739,1
19.740536043342317,-29.69444464468548,-51.04650359398063,30.703092622851617,-2.969050479220469,26.44100207642957,6.825367975263181,357.672,-0.7691379999946548,1
19.10774527541705,-29.10082015822758,-49.6677241829229,30.1037971695496,-3.4452513614216955,25.927753551353337,7.074499706252258,357.676,-0.7651379999946926,1
18.00532248374479,-28.041553598892527,-47.25960748760755,29.0493391738308,-4.258329040023418,24.978612588269687,7.526215880678286,357.68,-0.7611379999946735,1
17.26291877863955,-27.419414873014784,-45.65995867174037,28.37702043516448,-4.866033507997955,24.539383636100926,7.766084202848168,357.684,-0.7571379999946544,1
17.432053428040195,-27.804731416295194,-46.08327451077289,28.631100995837805,-4.8882443468408,25.173470820294263,7.5396250297366425,357.688,-0.7531379999946921,1
18.30767729237064,-28.871180345547536,-48.050391341118356,29.561885287527694,-4.390910143460541,26.42085860909408,7.022060641134051,357.692,-0.749137999994673,1
19.060422710137065,-29.598758723919715,-49.69571734365016,30.283661494344212,-3.8385689493386277,27.0783699226575,6.710590889769769,357.696,-0.7451379999946539,1
18.9341641492316,-29.15048976257822,-49.34088213271437,30.02744337579404,-3.716041268214187,26.252860622825395,6.9929450156557715,357.7,-0.7411379999946917,1
17.965658950973147,-27.7411091007232,-47.10955034357696,28.90271951501866,-4.114555229168753,24.36932834918348,7.727507858293619,357.704,-0.7371379999946726,1
16.98022104249465,-26.52265046181918,-44.89131766180729,27.847636878469636,-4.662215016624312,22.92546140504586,8.322863814240636,357.708,-0.7331379999946535,1
16.842841647834142,-26.543837075534302,-44.62825982874188,27.77969871443645,-4.864575497640581,23.143030074542143,8.271101965104043,357.712,-0.7291379999946912,1
17.67221241614556,-27.77181812329632,-46.544134457448216,28.751575211622125,-4.5372090887945,24.80217071878588,7.62720332298547,357.716,-0.7251379999946721,1
18.82981670504454,-29.256579249354964,-49.16283072200351,30.013125232356145,-3.929104794391706,26.615424272717874,6.890148555631672,357.72,-0.721137999994653,1
19.55230379981065,-30.085950463436,-50.773696649156705,30.760176161558608,-3.4853958098918234,27.533794062793113,6.498768898322212,357.724,-0.7171379999946907,1
19.60230892897688,-30.21440780028295,-50.902365439908934,30.841318475992708,-3.501550943430023,27.753135298526193,6.421561480126137,357.728,-0.7131379999946716,1
19.30471744542453,-30.290168618260665,-50.33974900994727,30.706523988508724,-3.9596034785706635,28.28991134693641,6.288368325908923,357.732,-0.7091379999946525,1
19.076721623138862,-30.811349552190713,-50.02066697612125,30.795125624089433,-4.616005729183309,29.71653014223399,5.859644868032978,357.736,-0.7051379999946903,1
18.891246662055714,-31.36647190219352,-49.792795297741996,30.921533339785302,-5.236486419600166,31.164597575079775,5.418376042614924,357.74,-0.7011379999946712,1
18.40442885269275,-31.049195609941933,-48.76577552039984,30.518240135799857,-5.694787305456036,31.075386163815423,5.511703283489814,357.744,-0.6971379999946521,1
17.549837174151623,-29.572020695391604,-46.740426671506505,29.42904159199458,-5.892378261326882,28.90133253002987,6.324614332048938,357.748,-0.6931379999946898,1
16.930640122665675,-27.9247216957635,-45.133467805598805,28.400811887135138,-5.6549672838101,26.06109482481561,7.320609950555966,357.752,-0.6891379999946707,1
17.366208465110233,-27.59515006015529,-45.904073678658996,28.507504635120085,-4.840303272775646,24.796004825486296,7.669809085873312,357.756,-0.6851379999947085,1
19.123586928633507,-29.266499585842254,-49.738700247705,30.181282567891518,-3.532804928327837,26.271253786112872,6.961881479237247,357.76,-0.6811379999946894,1
21.529356935970952,-32.1537579286999,-55.132991998282236,32.72087301664194,-2.1381519940303932,29.60460384223243,5.570068126167268,357.764,-0.6771379999946703,1
23.426690099752864,-34.69116365672499,-59.45018625066232,34.83160174243306,-1.2099594950875228,32.80425137830231,4.288766181986653,357.768,-0.673137999994708,1
24.04344568066739,-35.81541437335195,-60.92593711671253,35.641775173274056,-1.1057320235229542,34.50080861575334,3.661054043892728,357.772,-0.6691379999946889,1
23.545787875094327,-35.71255745951681,-59.92959034995421,35.3212601777123,-1.7203220080305595,34.8951886360842,3.6002331286108182,357.776,-0.6651379999946698,1
22.72290298082933,-35.283426108742546,-58.219491223799864,34.683959797357915,-2.5656908792133346,34.9793527705388,3.682392663029753,357.78,-0.6611379999947076,1
22.18074025506819,-35.034331603103396,-57.10091446273463,34.27800776367191,-3.1448560663091345,35.10855939676753,3.7127947166395745,357.784,-0.6571379999946885,1
21.883141770722663,-34.649980750610936,-56.427056714168096,33.95259037800289,-3.2994428329632437,34.63660369293684,3.9041444560798864,357.788,-0.6531379999946694,1
21.472987818396494,-33.67695673099136,-55.391172288969145,33.320439115871245,-3.2201048044790475,33.01425051029186,4.480556379879942,357.792,-0.6491379999947071,1
20.870969559204614,-32.366506291606065,-53.89917825028611,32.44135490464198,-3.1813116377324144,30.891115600429114,5.243556115348922,357.796,-0.645137999994688,1
20.430979244068517,-31.603634995743295,-52.8558524417027,31.87960625532912,-3.281498007666979,29.76666155259836,5.663738393116999,357.8,-0.6411379999946689,1
20.52547595973443,-32.028427720456406,-53.14300992303792,32.10836195775466,-3.4320960677511927,30.580264473718387,5.389431320038085,357.804,-0.6371379999947067,1
21.031682425981177,-33.26317630404755,-54.429668728426684,32.902580443657065,-3.5523440172965612,32.656775003131884,4.654151177000707,357.808,-0.6331379999946876,1
21.338000132119905,-34.157989280611346,-55.24394674386745,33.44434542997145,-3.7224856674431455,34.23699795298749,4.1050781768431595,357.812,-0.6291379999946685,1
20.95506739831879,-33.88981297771821,-54.43159137413895,33.11940539343103,-4.070715225652774,34.12603340715605,4.191613378604113,357.816,-0.6251379999947062,1
20.143890007749235,-32.867408446466186,-52.60092837643171,32.24285645329714,-4.508725195138667,32.89493334722308,4.695382209767171,357.82,-0.6211379999946871,1
19.74322226999091,-32.300290265258006,-51.68168597637973,31.784164626500726,-4.684101738043791,32.15066474348216,4.988026339707752,357.824,-0.617137999994668,1
20.32869002690843,-32.91736381814893,-52.97375432139466,32.36674859730726,-4.288260517052993,32.774268031855385,4.7096720005255,357.828,-0.6131379999947058,1
21.528150910896866,-34.13049384732575,-55.608494951795684,33.53913857003016,-3.4435994216542056,33.93986600265156,4.175432737197074,357.832,-0.6091379999946867,1
22.288776848107663,-34.61420223979464,-57.21025131740794,34.16428288556981,-2.719602712031134,34.05290522631599,4.0380913092402935,357.836,-0.6051379999946676,1
21.77278925337741,-33.52852457980354,-55.9405351754123,33.42636078658237,-2.711090039256571,32.315398438944,4.665601315568707,357.84,-0.6011379999947053,1
20.12564862900783,-31.32669346760303,-52.1928659244015,31.59436953708259,-3.517531592001021,29.5398192291728,5.777253588742429,357.844,-0.5971379999946862,1
18.343930669745397,-29.304892069822284,-48.22600758519189,29.76181172759548,-4.627259176448584,27.32656317836852,6.725853255753433,357.848,-0.5931379999946671,1
17.41130603813288,-28.441642504080896,-46.19674059486058,28.88338017815415,-5.336781726905719,26.595666036062102,7.084812573498122,357.852,-0.5891379999947048,1
17.455959339923247,-28.529159158172465,-46.30506501387686,28.944572664558716,-5.333272543822107,26.731915888626165,7.0350488227633665,357.856,-0.5851379999946857,1
17.840552829744603,-28.604794103177657,-47.07411730427045,29.190672425464797,-4.855771313953061,26.418687622605916,7.084769843585916,357.86,-0.5811379999946666,1
17.90665138393924,-27.99088947425009,-47.05474321193719,28.973249596485545,-4.360218860349814,24.990442022391008,7.535508543721371,357.864,-0.5771379999947044,1
17.568576690062468,-26.882537137349132,-46.12685098354751,28.32528393395288,-4.0927811943564665,22.981615701751224,8.226692989486603,357.868,-0.5731379999946853,1
17.132800710236186,-25.87740927354799,-45.03318877705,27.665524539815273,-4.027403596363635,21.320793384514243,8.818883012395998,357.872,-0.5691379999946662,1
16.75492730420787,-25.212230027488346,-44.13473805124732,27.178935971243074,-4.1068445569776255,20.333144904783524,9.186804455478871,357.876,-0.5651379999947039,1
16.16130850266376,-24.49195527057764,-42.80181006524883,26.549045210794084,-4.44579488267825,19.493438096719764,9.535768408327154,357.88,-0.5611379999946848,1
15.011729815752727,-23.228177900848006,-40.25220138402774,25.383527890665388,-5.188647803751324,18.15466864278722,10.11910073942172,357.884,-0.5571379999946657,1
13.458683146184946,-21.54854887515695,-36.814451174954065,23.820423015038774,-6.2104879068255325,16.40675254853966,10.887629247173178,357.888,-0.5531379999947035,1
12.243306757577859,-20.28362134190034,-34.13612019363831,22.617686378794094,-7.0428096867537056,15.147418993639432,11.45413909228102,357.892,-0.5491379999946844,1
12.062697440345984,-20.196880157097098,-33.76258233090402,22.480894470090306,-7.233264933801261,15.18221582957402,11.466919681792076,357.896,-0.5451379999946653,1
12.830851465321894,-21.117280667651436,-35.484600537953774,23.29115916452278,-6.786973621524084,16.24327395189259,11.023570245392053,357.9,-0.541137999994703,1
13.696263312621921,-21.998934288439518,-37.38710988097772,24.139682274556744,-6.181757768278944,17.098239931314065,10.633616419203443,357.904,-0.5371379999946839,1
13.811228288526676,-21.823115203854588,-37.569031394663696,24.13104129762449,-5.908143091698164,16.569577199165824,10.788442904899442,357.908,-0.5331379999946648,1
13.075844010212823,-20.46636313485468,-35.805499422143434,23.158300470135032,-6.0216937706655145,14.511051906242807,11.54835994107293,357.912,-0.5291379999947026,1
12.121037840047272,-18.708198842534046,-33.51659447376668,21.896729375483268,-6.171375594583023,11.845789249495594,12.532612445857607,357.916,-0.5251379999946835,1
11.62580395637419,-17.502871365873812,-32.258467615941974,21.120827037028416,-6.05548634395919,9.82011359199136,13.250080740381007,357.92,-0.5211379999946644,1
11.605591189696774,-17.098450813490757,-32.12124525011641,20.94199300700392,-5.816460592467495,8.95864630086108,13.529926158512888,357.924,-0.5171379999947021,1
11.449131928474124,-16.933585648759287,-31.77596518469617,20.786321127051856,-5.9222710534686955,8.79208427613002,13.604284555268128,357.928,-0.513137999994683,1
10.635480980863246,-16.322676305526436,-30.039948611697053,20.078868638409975,-6.635082423828904,8.466219853300837,13.817137868478323,357.932,-0.5091379999946639,1
9.38544786461817,-15.25138836709468,-27.34077447837728,18.937001622215938,-7.642647154249593,7.674586586758699,14.237773926128723,357.936,-0.5051379999947017,1
8.43354373386354,-14.276293952969121,-25.246834375950904,18.001467958001296,-8.304838024558059,6.722497338346805,14.670457323266431,357.94,-0.5011379999946826,1
8.285484848087576,-13.876826589376044,-24.861239888998277,17.753294023160667,-8.244392843281402,6.031134220074371,14.912546230333112,357.944,-0.49713799999466346,1
8.684784498696557,-13.890744607529824,-25.644080717864487,17.982037397610156,-7.70601869188924,5.564280917245994,15.009741203730854,357.948,-0.4931379999947012,1
8.871290760286664,-13.693133466734391,-25.960390566290975,18.00431837599986,-7.319927084161313,4.89872998236611,15.199111998534049,357.952,-0.4891379999946821,1
8.234384097202824,-12.741852715293316,-24.487116455594474,17.25455163132327,-7.565873071029738,3.606489107120708,15.699417406270705,357.956,-0.485137999994663,1
6.8381978194291175,-11.142216110545899,-21.37491217787272,15.812180830890078,-8.42537322235502,1.838561927593499,16.453560932860928,357.96,-0.48113799999470075,1
5.249401893015557,-9.530957277166701,-17.883903385784798,14.257437807143742,-9.541330638471779,0.285068610441958,17.16428299082202,357.964,-0.47713799999468165,1
3.9416486771075028,-8.474475517742354,-15.075632603874455,13.089472706949232,-10.637811832690044,-0.4022078076947399,17.55900637794486,357.968,-0.47313799999466255,1
2.857323277875327,-7.911989001061279,-12.822935868939105,12.250930949613384,-11.753733497441853,-0.2847593038103439,17.66516344376388,357.972,-0.4691379999947003,1
1.647331951685434,-7.33257551501822,-10.320833663033868,11.335202053862451,-13.030814592516698,-0.0478919318735897,17.74958169689447,357.976,-0.4651379999946812,1
0.19718727635854003,-6.348356038804187,-7.2520680142527585,10.117660011726361,-14.37021716766603,-0.3993792913786827,18.05517322401674,357.98,-0.4611379999946621,1
-1.1351640967690027,-5.098297450194264,-4.348983587403209,8.855762124150212,-15.372752207143952,-1.480410615624637,18.57984583298483,357.984,-0.45713799999469984,1
-1.7864860024150009,-4.147846070636085,-2.847769850644417,8.098289204966486,-15.639012643100472,-2.752877591291089,19.07570295312055,357.988,-0.45313799999468074,1
-1.430259327590676,-4.078001939144485,-3.5262788444733566,8.26827802833375,-15.104456950305373,-3.3497178904805605,19.220436923660685,357.992,-0.44913799999466164,1
-0.2489241997599197,-5.043349777573608,-6.065737025279216,9.327892878467944,-14.121222013746802,-2.704775687216656,18.856115825108233,357.996,-0.4451379999946994,1
1.1827457287084966,-6.641026976788795,-9.246735574666825,10.78926673438006,-13.211771263891947,-0.9853426430885168,18.11286399534748,358.0,-0.4411379999946803,1
2.301121436820911,-8.22411347210912,-11.812622619255729,12.069645765838974,-12.722312935369363,1.0923407135344425,17.295941110539836,358.004,-0.4371379999946612,1
2.8262221592219428,-9.263051900644552,-13.088829808165617,12.793293298825985,-12.687501157691537,2.716025963346277,16.703841445107468,358.008,-0.43313799999469893,1
2.7244544375411808,-9.480989568502041,-12.942852537715513,12.826753145353228,-12.970798733036764,3.3205902370649016,16.522843019294992,358.012,-0.42913799999467983,1
2.043538771837445,-8.795693671284013,-11.447967402081119,12.16260532559598,-13.452529001031698,2.6663072599409583,16.823738717022444,358.016,-0.42513799999466073,1
0.9217967052850164,-7.377475981687357,-8.915364337464593,10.948649704580117,-14.05534591402627,0.9542724094844754,17.523467413828598,358.02,-0.4211379999946985,1
-0.3539009285664136,-5.630080276080771,-6.002647609377841,9.512347388762443,-14.652164353660556,-1.2876795740970877,18.414125353020196,358.024,-0.4171379999946794,1
-1.3626702249655196,-4.111726197230942,-3.666372633535164,8.31999277413446,-15.03401642947924,-3.359970301740234,19.214763012816572,358.028,-0.4131379999946603,1
-1.7464086902303586,-3.307834152891321,-2.722940165835979,7.772661911827336,-15.030009410185334,-4.6444246948716295,19.678955202187215,358.032,-0.409137999994698,1
-1.4112593905249222,-3.4465316908274612,-3.410716814249834,8.017277109102212,-14.66190443670185,-4.757808084525295,19.67094330772709,358.036,-0.4051379999946789,1
-0.6842128485103378,-4.257144513728782,-5.025948613594292,8.759102742914367,-14.199570693496984,-3.886243089827656,19.294017016243632,358.04,-0.4011379999946598,1
-0.13111941849741282,-5.090939799294886,-6.30720918959147,9.413393539227759,-13.991066859979082,-2.7471776073305985,18.85411933546564,358.044,-0.39713799999469757,1
-0.18195692195323215,-5.305316230370213,-6.2597923404434965,9.473818508174826,-14.202175655947507,-2.213859510971711,18.689282151511303,358.048,-0.39313799999467847,1
-0.8258386442105006,-4.709130938473794,-4.858743131585375,8.86726872104359,-14.691896381457765,-2.718907427003529,18.937247801687317,358.052,-0.38913799999465937,1
-1.7237569673627686,-3.5644747980742597,-2.8291992416646115,7.891634385235928,-15.168219617732507,-4.1099853485128355,19.504001588110977,358.056,-0.3851379999946971,1
-2.4827768456333748,-2.3908320470224798,-1.0637929601824496,6.981555033677505,-15.434954684858617,-5.7376246373562845,20.128426141375638,358.06,-0.381137999994678,1
-2.912853200351107,-1.616783061094847,-0.03711817788688502,6.420711758965868,-15.51417372185834,-6.898933260870738,20.559149663096026,358.064,-0.3771379999946589,1
-3.0634368662406524,-1.3571939999693445,0.3195906950301092,6.229077910632478,-15.549450120587123,-7.280484867001734,20.701897248136234,358.068,-0.37313799999469666,1
-3.125666879302322,-1.3547498399859503,0.44166129090858247,6.193314778779418,-15.633173177881659,-7.208329808731969,20.68694363621387,358.072,-0.36913799999467756,1
-3.2401680370258146,-1.24351103414844,0.6920709159548137,6.083289969314521,-15.716817357427516,-7.309585314715116,20.73472085804755,358.076,-0.36513799999465846,1
-3.4491285157188423,-0.7975206388023173,1.2077984294953417,5.781833349185093,-15.709200534519418,-8.027085770574574,20.993303680934694,358.08,-0.3611379999946962,1
-3.7734394933152102,-0.012913141296346232,2.030560130693576,5.275677408932823,-15.636420918100454,-9.343283843109768,21.45981985619535,358.084,-0.3571379999946771,1
-4.261519494007824,0.9463161147338249,3.2152299107175115,4.60572561947011,-15.67304039096465,-10.838329093468142,22.005617333519115,358.088,-0.353137999994658,1
-4.8979016235093615,1.8101010832521265,4.666328795450362,3.8925002848630954,-15.97597659338431,-11.939399160901763,22.44434721422981,358.092,-0.34913799999469575,1
-5.52584853340462,2.3292848827503825,6.017657136363815,3.3267496664387846,-16.494633925883594,-12.295478776141023,22.64226954987623,358.096,-0.34513799999467665,1
-5.926283519057363,2.4500181063354622,6.828535829967105,3.0531199823718214,-16.9641129541519,-12.061391019081803,22.62011357361664,358.1,-0.34113799999465755,1
-5.948865562507251,2.3138696819001208,6.839705834854187,3.0969144266883673,-17.08487866802156,-11.734773533358341,22.51802782044443,358.104,-0.3371379999946953,1
-5.640884143645849,2.167030423291209,6.202995656001835,3.329731531037446,-16.759398656876357,-11.796466899835112,22.496992090026772,358.108,-0.3331379999946762,1
-5.2739031254732796,2.2335856060207067,5.502697943792726,3.5070883790301473,-16.212264971444256,-12.39949215784219,22.642288325916084,358.112,-0.3291379999946571,1
-5.196185696906313,2.60330974235036,5.440362402904748,3.3973149511450065,-15.861833587030487,-13.306873328126178,22.923905515662852,358.116,-0.32513799999469484,1
-5.549141699589558,3.091879887082722,6.247478068675786,2.997807908610179,-16.023591538279486,-13.938364292622158,23.17393166612247,358.12,-0.32113799999467574,1
-6.154922174657539,3.353401276646898,7.493247666732635,2.551182073994571,-16.681798471347687,-13.757159989119888,23.196049617750965,358.124,-0.31713799999465664,1
-6.645561091532889,3.1275128951475373,8.396421729173426,2.370781979090044,-17.503593738901966,-12.650787466994487,22.90522569401828,358.128,-0.3131379999946944,1
-6.751947693592634,2.4681910340393842,8.444715094214455,2.584522955683685,-18.084348426720084,-11.072787232957811,22.411654269332946,358.132,-0.3091379999946753,1
-6.4809301205138174,1.6800291499475954,7.7251286665587555,3.0623912827711104,-18.23255290875508,-9.682414420793142,21.928348350784553,358.136,-0.3051379999946562,1
-6.159518450686877,1.1990498221060082,6.981425972352724,3.441138519890805,-18.109044594287273,-9.028273862222866,21.675222592847422,358.14,-0.30113799999469393,1
-6.161555782886888,1.2745464341873372,7.003653659234957,3.408723450226666,-18.062043138829164,-9.191253566556139,21.72792894462317,358.144,-0.29713799999467483,1
-6.544529211880858,1.7394400235053107,7.863643017130765,3.002262972705343,-18.280579888931637,-9.733446829630866,21.95320991710184,358.148,-0.29313799999465573,1
-6.8924121124769355,2.0186484663737376,8.610244221936508,2.6923250090203106,-18.573469642612018,-9.912256046856868,22.056920104615177,358.152,-0.2891379999946935,1
-6.658846390679833,1.6093259638152826,8.055348718774372,2.9923306254307,-18.523160635371006,-9.30579385911628,21.8307955771467,358.156,-0.2851379999946744,1
-5.620519695301017,0.44575979537737215,5.747141118071114,4.054206148743646,-17.866769823029113,-8.048150346635278,21.288332802773258,358.16,-0.2811379999946553,1
-4.128752124005499,-1.0075360366994257,2.483728276026559,5.48932424406834,-16.779678547589338,-6.720113904174354,20.663028092373747,358.164,-0.277137999994693,1
-2.8708977997595277,-2.085997876288621,-0.2324479275182918,6.638530851822378,-15.766120386088875,-5.92249478934059,20.23942792717351,358.168,-0.2731379999946739,1
-2.3514491717796377,-2.355186080785203,-1.311541765097248,7.040123445954808,-15.23135590434007,-5.979355716446006,20.188765192493296,358.172,-0.2691379999946548,1
-2.466992136138652,-1.9385753617303332,-0.9852776434441952,6.803004787988768,-15.115014868497417,-6.748805388108459,20.451660609930194,358.176,-0.26513799999469256,1
-2.631837370035028,-1.3705268626473133,-0.5261614841861014,6.475615773061731,-14.966397690866811,-7.788853682560568,20.808161317234042,358.18,-0.26113799999467346,1
-2.3343911522719134,-1.1288124881579205,-1.0483766340783476,6.541576485674005,-14.399086544669755,-8.689282352364529,21.05837268586843,358.184,-0.25713799999465436,1
-1.6241574342989964,-1.2502247352368898,-2.464180242853747,6.988485590707098,-13.50523269672914,-9.30776616395272,21.16307568236438,358.188,-0.2531379999946921,1
-1.0099204148652485,-1.4212391129215773,-3.704578718218817,7.4023377199073614,-12.775733808028983,-9.697929853194022,21.207064187321283,358.192,-0.249137999994673,1
-0.9518565166541606,-1.325134066717832,-3.7946932653297014,7.394946599833813,-12.632723690097075,-9.980953096796151,21.290414035761078,358.196,-0.2451379999946539,1
-1.4433233398678533,-0.904470968174233,-2.733605323779666,6.946225320743775,-13.029208977189725,-10.291037061920187,21.455420350187826,358.2,-0.24113799999469165,1
-2.0242614979175757,-0.41619928444908855,-1.4815158834574391,6.419531910315091,-13.503792535224246,-10.637899530948747,21.64413682168195,358.204,-0.23713799999467255,1
-2.202590540279392,-0.21813584281847007,-1.0855182603285545,6.237893820493645,-13.617696169763358,-10.850003895882645,21.736050888578742,358.208,-0.23313799999465346,1
-1.8742343494978182,-0.4794664060418306,-1.7896793984861281,6.529521059373949,-13.33979142681727,-10.686067383429904,21.63971790489894,358.212,-0.2291379999946912,1
-1.340250548059887,-1.0580938215756635,-2.9719514808504277,7.067427515873624,-12.989191557982657,-10.082624387951853,21.374684280546823,358.216,-0.2251379999946721,1
-0.9089744619488561,-1.6928603525809112,-3.9672980506350166,7.5712376218884465,-12.816460964350185,-9.228170472981143,21.042526680607615,358.22,-0.221137999994653,1
-0.6178853142891874,-2.131919073795646,-4.641673977870084,7.915684900091427,-12.70688397153874,-8.628166213207626,20.810843650609772,358.224,-0.21713799999469074,1
-0.2874548152758811,-2.215182315997806,-5.306838297277887,8.134699227059887,-12.308687083761702,-8.857205016851616,20.840668302104955,358.228,-0.21313799999467165,1
0.21995179060923895,-1.9147681683636817,-6.224728809184745,8.293587580870932,-11.414743637175734,-10.147852278244924,21.188553521488842,358.232,-0.20913799999465255,1
0.9129779805998178,-1.4686201926580635,-7.469739129343677,8.495753949532684,-10.17014113570133,-11.989211152151723,21.688979679722237,358.236,-0.2051379999946903,1
1.7068919949162848,-1.2532859012066513,-8.967490467353809,8.849881657703348,-8.939430105251414,-13.450203984536039,22.053636805728225,358.24,-0.2011379999946712,1
2.5595982487079794,-1.581205689213718,-10.711337185980524,9.461904120818035,-7.986411615946175,-13.79340794235688,22.050860063971236,358.244,-0.1971379999946521,1
3.453365621413669,-2.431575067565546,-12.661636923579428,10.31330084802639,-7.321678111294127,-13.042348558533869,21.69057219153287,358.248,-0.19313799999468984,1
4.281744510726333,-3.423315220258086,-14.518466290800156,11.186751565416646,-6.839854694619128,-11.899902680717927,21.2130428102523,358.252,-0.18913799999467074,1
4.745436834662259,-3.960307578763451,-15.553456893926189,11.668156860023906,-6.558183358299576,-11.300184692755098,20.95853882905813,358.256,-0.18513799999470848,1
4.620352816397194,-3.7658899668756147,-15.262280684822857,11.51776233378293,-6.601477509699039,-11.570617911205366,21.062150922422763,358.26,-0.18113799999468938,1
4.088306267663931,-3.21479021361429,-14.09044488256955,10.992342074631216,-6.96757724204214,-12.11612279813664,21.308286794067477,358.264,-0.17713799999467028,1
3.763802035793681,-3.1497101202395275,-13.441244884736705,10.784170169568792,-7.369640562577893,-11.854601336636266,21.267224698827896,358.268,-0.17313799999470803,1
4.193125138750834,-4.130931726097404,-14.516531262692173,11.430422053407533,-7.42809907535201,-10.23815297366099,20.690167845644183,358.272,-0.16913799999468893,1
5.36798053309719,-5.940095663320383,-17.247324875264198,12.836001817830168,-7.010304600124412,-7.7351725318198,19.728915319601423,358.276,-0.16513799999466983,1
6.636890832013886,-7.669371406171124,-20.1424116585764,14.261007050693218,-6.410842173559799,-5.5244921336350785,18.849219489235278,358.28,-0.16113799999470757,1
7.165942551464066,-8.397389533687944,-21.351169575491422,14.858050188026658,-6.165539074126781,-4.5873842613007385,18.477489705116145,358.284,-0.15713799999468847,1
6.590550580354601,-7.9214027918308965,-20.112876663068192,14.33954339524142,-6.640619989467951,-4.9142217671167625,18.659027235887766,358.288,-0.15313799999466937,1
5.3241647943856725,-6.963650328286608,-17.40922647178659,13.235581150610685,-7.745493381164241,-5.436573064455396,18.995197300696454,358.292,-0.14913799999470712,1
4.206192871617285,-6.57396317430969,-15.132620683598727,12.449839263297713,-9.021527147716988,-4.898372327111031,18.97045119782141,358.296,-0.14513799999468802,1
3.8148086572073674,-7.221664041377486,-14.525171764736845,12.499617151531424,-9.98543024120689,-2.9908572456953375,18.40869748427771,358.3,-0.14113799999466892,1
4.129822715706503,-8.475613753366858,-15.4432439194347,13.195024594511755,-10.380522141911378,-0.6341015982499749,17.608634102744592,358.304,-0.13713799999470666,1
4.716576125603894,-9.43734837868353,-16.821140558899742,13.921115630848005,-10.210245662463265,0.7435289605457915,17.087513883048786,358.308,-0.13313799999468756,1
5.142035503362492,-9.488483822681529,-17.664044977259312,14.17988589830794,-9.660546500203754,0.3256859582047936,17.165467940269313,358.312,-0.12913799999466846,1
5.228436575934188,-8.714887328729802,-17.645699604846815,13.907641912950492,-9.031825691437186,-1.477953967165109,17.73428810329419,358.316,-0.1251379999947062,1
5.086526222095862,-7.850755567301807,-17.15977948877454,13.470396315758085,-8.656470907879482,-3.195697474782449,18.305780900884297,358.32,-0.1211379999946871,1
4.930046595385997,-7.693620622790949,-16.816328375466895,13.317915604882796,-8.76740790897654,-3.345286537840418,18.374681244805984,358.324,-0.11713799999466801,1
4.930333247851204,-8.557296412846917,-17.025673420254872,13.675886653343206,-9.336668555182662,-1.4521364706587145,17.765554957748716,358.328,-0.11313799999470575,1
5.165580789689986,-10.105740380457505,-17.859223878193113,14.448756393556199,-10.035382433265443,1.6496200628757296,16.7363894457941,358.332,-0.10913799999468665,1
5.663491557768068,-11.705627307856322,-19.217957327141583,15.389615016276666,-10.40784006986198,4.5369863741320255,15.74133175668305,358.336,-0.10513799999466755,1
6.308929371212538,-12.745570673175234,-20.729318519587554,16.180877638433184,-10.208674542044005,6.012983169001821,15.18077355615917,358.34,-0.1011379999947053,1
6.862528208032464,-12.932546613266322,-21.855203234585268,16.567480827007284,-9.572855698616905,5.733344128528954,15.19725238289972,358.344,-0.0971379999946862,1
7.139806802178556,-12.39945693227375,-22.267611763708558,16.501466067460722,-8.84101803031881,4.219230282065733,15.647583574596045,358.348,-0.0931379999946671,1
7.239603864885599,-11.657663265671797,-22.283104852011892,16.249878230615113,-8.214903644292466,2.468628277189963,16.197561389285426,358.352,-0.08913799999470484,1
7.431319334535874,-11.196594341515823,-22.545895208507964,16.16592060156187,-7.647900150239101,1.2189887014729313,16.57416106269217,358.356,-0.08513799999468574,1
7.877388216349979,-11.202356128439728,-23.41806296363185,16.417401862506757,-7.040012407323616,0.6759981566930958,16.68964326384533,358.36,-0.08113799999466664,1
8.384722875625707,-11.458616206151328,-24.470383766208304,16.806873787781885,-6.513332651037986,0.6058829763716804,16.64485298361833,358.364,-0.07713799999470439,1
8.493626778796157,-11.542471186397641,-24.703247161242373,16.90242816799568,-6.419302387699324,0.6540746103324575,16.614891178215036,358.368,-0.07313799999468529,1
7.848841364972039,-11.102928842756038,-23.338300802142406,16.36026911771704,-7.013579156808837,0.49357348655884603,16.752124832459348,358.372,-0.06913799999466619,1
6.618129558507754,-10.192976622747384,-20.71584535039987,15.296031064159784,-8.101060873917469,0.031583131769832976,17.06413909262733,358.376,-0.06513799999470393,1
5.4431175751077605,-9.257772777789812,-18.19601766000006,14.252435501308904,-9.095507012613616,-0.555148024626799,17.4088923986136,358.38,-0.06113799999468483,1
4.954275586681239,-8.828817873620828,-17.138049215270136,13.801744785027626,-9.482923882878016,-0.8866802832566447,17.580450883316725,358.384,-0.057137999994665734,1
5.297153659235199,-9.190597586682376,-17.89484127723658,14.143096278135149,-9.251358625594806,-0.520609307808995,17.41715685995238,358.388,-0.05313799999470348,1
6.1378593779609565,-10.322822340769722,-19.809694780120388,15.081631714957622,-8.845290879782512,0.9144781832956905,16.843838724458337,358.392,-0.04913799999468438,1
7.041000790249919,-11.99400881770584,-21.976718444971272,16.278318213777183,-8.709088352204347,3.453405784530224,15.907090826324124,358.396,-0.04513799999466528,1
7.789328104545611,-13.83631057502279,-23.882893682202727,17.459444371885667,-8.898042563587456,6.56031957643421,14.808154767947473,358.4,-0.04113799999470302,1
8.387683479369361,-15.43404610812788,-25.437185831903097,18.455502071582234,-9.131342918469246,9.31785559179278,13.841533715755832,358.404,-0.03713799999468392,1
8.82373836254856,-16.410143915903607,-26.524374746069167,19.103390391889036,-9.177190736788056,10.914685539772538,13.269895104550665,358.408,-0.033137999994664824,1
8.926490803319634,-16.550587659070693,-26.758909617656265,19.218953742041304,-9.12892007867255,11.09460360041142,13.198369209627117,358.412,-0.029137999994702568,1
8.537973575016794,-15.935521757901412,-25.851795422916034,18.74718282400434,-9.256009970343209,10.230080633667333,13.528090118472164,358.416,-0.02513799999468347,1
7.863574557679704,-15.060272388736873,-24.32371203411921,18.007978492207442,-9.603516638401304,9.151229988234425,13.964718023135791,358.42,-0.02113799999466437,1
7.4503941117030354,-14.583500028050267,-23.401883717956338,17.579728544132884,-9.855640981065532,8.62061972748845,14.190282343747745,358.424,-0.017137999994702113,1
7.732429567009594,-14.881437805125747,-24.02447119866062,17.860655261781318,-9.6654001982625,8.92251025416965,14.055714119088256,358.428,-0.013137999994683014,1
8.586163855972883,-15.761006578243558,-25.903680687462288,18.701793649852778,-9.074822517182325,9.78745099667844,13.664101280384026,358.432,-0.009137999994663915,1
9.455302742684408,-16.70710501863834,-27.82904454284894,19.579096766607815,-8.507001628362824,10.779062235064977,13.229689445492872,358.436,-0.005137999994701659,1
9.867414764685785,-17.26885318474461,-28.76932927806846,20.041954586061834,-8.31238980283944,11.49730273571318,12.943900179191688,358.44,-0.0011379999946825592,1
9.930691070939018,-17.422601455595352,-28.930018692176414,20.14098554804516,-8.327027470893828,11.755560802104872,12.85241019757653,358.444,0.00286200000533654,1
10.244118202045247,-17.516221094186676,-29.564494152021936,20.35479537403777,-7.958977821899545,11.570406537779093,12.87037295424605,358.448,0.006862000005298796,1
11.290616535065793,-17.920607743218085,-31.70512919559399,21.10671474210627,-6.790650122927297,11.153460078926845,12.865595705640471,358.452,0.010862000005317896,1
12.803641911580968,-18.552492568105855,-34.81147122606673,22.213402480853553,-5.132631125026982,10.654171259777087,12.825379266987964,358.456,0.014862000005336995,1
13.916278054911462,-18.96823535068864,-37.08395969557741,23.006959305166173,-3.8810997218697927,10.17974064660523,12.830316761453002,358.46,0.01886200000529925,1
13.930271785246646,-18.826956000177717,-37.07712402769233,22.956243282854935,-3.7687268425448592,9.852571798790875,12.933720003522485,358.464,0.02286200000531835,1
12.99817340159182,-18.308551538040664,-35.13224737854124,22.220970973259398,-4.704976877314244,9.877051307025706,13.049580112019251,358.468,0.02686200000533745,1
11.986352680165544,-17.950053971066886,-33.070400050904496,21.50742763124281,-5.85601866436547,10.35140978674624,13.03128258818229,358.472,0.030862000005299706,1
11.747173435130993,-18.203613085119596,-32.66479171315962,21.47891155796736,-6.35124154557065,11.205229414048897,12.788331936702644,358.476,0.034862000005318805,1
12.418548775469137,-19.027881176775825,-34.17464831359301,22.195306446465146,-5.974255536259958,12.176075918833002,12.386853885861523,358.48,0.038862000005337904,1
13.404338405034274,-19.946169108967567,-36.32100415876431,23.126228209829357,-5.228130162560406,12.961415952421184,12.003320863007476,358.484,0.04286200000530016,1
13.98578965721505,-20.505051291871656,-37.59116463607262,23.68246126287321,-4.799415498070443,13.462444488715242,11.764936017211234,358.488,0.04686200000531926,1
13.983667452881466,-20.742591600076832,-37.64444498958136,23.77968640518761,-4.958999857506728,13.985866961401818,11.596815627694046,358.492,0.05086200000533836,1
13.795754669322289,-21.11259796795199,-37.36706437604809,23.828041361088008,-5.4607267470629735,15.03112602326024,11.285467037392536,358.496,0.054862000005300615,1
13.887129117611657,-21.95979902945364,-37.75024007975229,24.230052453939223,-5.894213749468639,16.774698403108523,10.712372884015156,358.5,0.058862000005319715,1
14.358718070127972,-23.18224155701813,-38.96634686623868,24.999841536272225,-6.053815520585058,18.86734887039168,9.976495467049975,358.504,0.06286200000533881,1
14.972898766233289,-24.351867449629403,-40.448040297920045,25.827375512509903,-5.983047009564931,20.666593091625817,9.316087386745359,358.508,0.06686200000530107,1
15.454608107771442,-25.089727433286555,-41.566759927873086,26.40205904127729,-5.8091552355857585,21.684247649848526,8.92472779784817,358.512,0.07086200000532017,1
15.724155375832385,-25.330005431937096,-42.151030403883965,26.652124308267563,-5.598008730682618,21.87528118834881,8.827483694054981,358.516,0.07486200000533927,1
15.882283286355012,-25.317854634047023,-42.45677591623467,26.73539231358132,-5.3731558426373045,21.651678164071804,8.878432628910927,358.52,0.07886200000530152,1
15.986448585848631,-25.27896380343516,-42.65071640141121,26.777448376258235,-5.204664235617891,21.436666506973054,8.933780971384376,358.524,0.08286200000532062,1
15.962081276604321,-25.206913395262944,-42.58573126170404,26.733991501862178,-5.190556575433599,21.309056376009167,8.978072077924946,358.528,0.08686200000533972,1
15.749895668109197,-24.962403270518276,-42.112413897749,26.514204867269992,-5.320252457360054,21.037294823053152,9.093674267195032,358.532,0.09086200000530198,1
15.521607668065547,-24.614915005617284,-41.582768923736275,26.242763656956782,-5.40410814117119,20.55982297472689,9.277597770775555,358.536,0.09486200000532108,1
15.555012146064847,-24.422340637772948,-41.601425057024706,26.181636065767993,-5.231284973784184,20.096017870515663,9.422384586233392,358.54,0.09886200000534018,1
15.984628834411714,-24.62773582046891,-42.48973583253193,26.50663590343458,-4.777629882417497,20.011192780059925,9.392644017512158,358.544,0.10286200000530243,1
16.64886991004616,-25.210082444439028,-43.927183342761545,27.11882157904563,-4.250863103877602,20.460541478528526,9.15989592345791,358.548,0.10686200000532153,1
17.23168573737834,-25.916732157661848,-45.235729024290535,27.73703503277528,-3.9177400904249127,21.283833153074454,8.81764734914925,358.552,0.11086200000534063,1
17.43709018327269,-26.3665602449745,-45.745442501445794,28.038095801385165,-3.9327644739698155,22.014176683061095,8.555404552671213,358.556,0.11486200000530289,1
17.180289478566422,-26.357669102044273,-45.24199028908256,27.89100940361823,-4.279047378318714,22.314554389956253,8.492853497304715,358.56,0.11886200000532199,1
16.604074871540327,-26.00255663496907,-44.03131171673857,27.42212005961411,-4.834981280588124,22.253744123333455,8.588910577807944,358.564,0.12286200000534109,1
16.006526389678267,-25.651201651411718,-42.7798954401572,26.9428741148141,-5.4226483474232925,22.22774513075707,8.676599803742839,358.568,0.12686200000530334,1
15.68101556412789,-25.554117869547483,-42.12099387261433,26.72088134558774,-5.804983356820386,22.420356097925023,8.6578420913416,358.572,0.13086200000532244,1
15.838508432682705,-25.70341045552359,-42.464527127900986,26.870678872749707,-5.687484335171156,22.551489624334135,8.59474498882922,358.576,0.13486200000534154,1
16.487009252848015,-25.841887759654337,-43.76394673278379,27.29018489041111,-4.889539530984425,22.047313318378986,8.670866561784498,358.58,0.1388620000053038,1
17.359882594071134,-25.675568902034293,-45.427684269755105,27.70871167484225,-3.5828817343098267,20.595429440276675,9.022111196909261,358.584,0.1428620000053229,1
18.02826879537885,-25.17420436594707,-46.611246574102005,27.874242969290073,-2.3356485773729165,18.66370630667085,9.554881446082314,358.588,0.146862000005342,1
18.245965987172024,-24.771424618420024,-46.938846931796164,27.828942616230446,-1.7714624406477928,17.509496077986896,9.897329309474733,358.592,0.15086200000530425,1
18.158025903267724,-25.088398646371754,-46.8438038169024,27.911153733987785,-2.1011196765290863,18.31396218916597,9.650180313381853,358.596,0.15486200000532335,1
18.137037850075664,-26.31918358148946,-47.10036349579128,28.40933364964461,-2.941687821106699,21.03845541502277,8.776407983644468,358.6,0.15886200000534245,1
18.416843906363056,-27.907813942871634,-48.03061169398695,29.223734560926676,-3.6058049268514742,24.172813864677096,7.730838231743321,358.604,0.1628620000053047,1
18.82149721709101,-28.813196144228364,-49.03940649851145,29.82479091979766,-3.648071465834142,25.6537219421828,7.200664029502576,358.608,0.1668620000053238,1
18.873485793054424,-28.23761102259177,-49.00175157551996,29.615364115501276,-3.197142185616375,24.327062697042322,7.620592178130175,358.612,0.1708620000053429,1
18.213757951218017,-26.234590640864575,-47.22967991980326,28.417129877878846,-2.780687739514988,20.75743297048868,8.85663750059735,358.616,0.17486200000530516,1
17.01083849169583,-23.774641203311614,-44.28678095396839,26.726265580919236,-2.8077281708847046,16.862638761735873,10.269407493813853,358.62,0.17886200000532426,1
15.860202390426966,-22.011831236612988,-41.61447166627801,25.353414296114465,-3.2228847065606616,14.431116416177622,11.204454506732683,358.624,0.18286200000534336,1
15.28962952368041,-21.443843551732854,-40.3633458095253,24.79948365658951,-3.630676286446689,13.89657504570997,11.452177421725056,358.628,0.18686200000530562,1
15.348152452455347,-21.683319356222917,-40.53547993648946,24.931376167015305,-3.708375413593687,14.348701398635157,11.298944688200338,358.632,0.19086200000532472,1
15.71201376543761,-22.08173145055079,-41.34208909473272,25.299621517125587,-3.472197712280172,14.76894785583463,11.11543511916596,358.636,0.19486200000534382,1
16.035660060589073,-22.33503546284858,-42.03511566225031,25.585293343503835,-3.1954575198299886,14.921153741137134,11.023501499698948,358.64,0.19886200000530607,1
16.26469743654115,-22.643363319422217,-42.55675684042471,25.84092931293814,-3.0847452381193667,15.311837599995973,10.867401048491125,358.644,0.20286200000532517,1
16.606637963492847,-23.29700576233098,-43.38227377094898,26.302672642990494,-3.0469692165439763,16.318950930299348,10.497987213041345,358.648,0.20686200000534427,1
17.285799696098252,-24.28407496002057,-44.94668588497445,27.090862247554526,-2.766684389648642,17.637020908145793,9.983762382845189,358.652,0.21086200000530653,1
18.251516597824832,-25.181766561641233,-47.04887861717481,28.002042155153024,-2.0344997677809458,18.402208473557806,9.609377720061454,358.656,0.21486200000532563,1
19.24561571866753,-25.635308435352265,-49.09910751983423,28.74506515011204,-0.9704476375592653,18.15829739948982,9.555885324476508,358.66,0.21886200000534473,1
20.029116750811685,-25.755355308966298,-50.65760681609012,29.232322601393122,0.024777214761013477,17.44555853562921,9.681187022461522,358.664,0.22286200000530698,1
20.498941074566698,-25.996240218836117,-51.63298656868261,29.594478212911724,0.5101605541243651,17.388457921678892,9.63718902423719,358.668,0.22686200000532608,1
20.547196467187327,-26.532173017780174,-51.856743029562566,29.84345584902909,0.22284787104754458,18.5033204309044,9.272095429174504,358.672,0.23086200000534518,1
20.02215063297169,-26.996103208639116,-50.943947288097014,29.742460201788735,-0.8031341073691305,20.17442868710513,8.80414508223983,358.676,0.23486200000530744,1
18.884714529133177,-26.820515061728972,-48.681101718365724,29.034547871028277,-2.247071890042808,21.206260748573303,8.623165521402868,358.68,0.23886200000532654,1
17.45240874758654,-25.8995443418787,-45.662449317135824,27.853170675764975,-3.6037291542964325,20.971218720752077,8.888924669207482,358.684,0.24286200000534564,1
16.393183754192187,-24.861450393462025,-43.34377769385716,26.831606806470578,-4.371535090997829,20.014689107049648,9.337283510604722,358.688,0.2468620000053079,1
16.368428302822032,-24.652905314270466,-43.24503856053509,26.731385008405688,-4.267932038684578,19.588314006701072,9.477748595561462,358.692,0.250862000005327,1
17.471939805410397,-25.646843811785125,-45.639488095620706,27.759386296263056,-3.410273065239058,20.392874816843005,9.072404054128535,358.696,0.2548620000053461,1
18.98466607838559,-27.12037930657311,-48.94870734669745,29.214593230322947,-2.307790867347486,21.739178207946775,8.438440003962825,358.7,0.25886200000530835,1
19.804549125607284,-27.755842944539726,-50.70282542383121,29.93569841682346,-1.6026287559238128,22.11111232887962,8.209937252984453,358.704,0.26286200000532745,1
19.263088459817336,-26.757673249789974,-49.404537305324695,29.219805167238842,-1.6867644865718483,20.59718562631798,8.768895788312433,358.708,0.26686200000534654,1
17.606819345747883,-24.565032212303127,-45.64126986492008,27.38652372021292,-2.511785297847641,17.85312499953457,9.87161930957554,358.712,0.2708620000053088,1
15.75505747494682,-22.50324786021112,-41.528012702350715,25.498287442069802,-3.691191606700633,15.639457613505863,10.829649638740019,358.716,0.2748620000053279,1
14.642037209233976,-21.817766769191625,-39.18956769484483,24.592766627772313,-4.765338740295414,15.522997318844727,11.014872048480894,358.72,0.278862000005347,1
14.618065737692719,-22.77202928755766,-39.373456733609736,24.974720473784302,-5.4276124064743865,17.644963959266484,10.335348256898342,358.724,0.28286200000530926,1
15.36596505309152,-24.578239734753932,-41.27007173704274,26.140655412422817,-5.593348819476802,20.673284932788057,9.261754892971155,358.728,0.28686200000532835,1
16.274547171193902,-26.08543621783578,-43.40807321772733,27.27244094155628,-5.341522820810218,22.845906915755286,8.44213722786795,358.732,0.29086200000534745,1
16.89300344200419,-26.63855741278008,-44.749078845460986,27.846951661834932,-4.858263921445324,23.288211783246894,8.217733292600464,358.736,0.2948620000053097,1
16.995795482246997,-26.220307634409284,-44.84863213546333,27.73107680594671,-4.441442065151454,22.243210986040538,8.540298560789921,358.74,0.2988620000053288,1
16.47788853058606,-25.12299317111565,-43.57235611297694,26.98726190363138,-4.427886105711827,20.482582629865153,9.17550232572193,358.744,0.3028620000053479,1
15.34318317387642,-23.604055871686032,-40.9900992834872,25.724340330159098,-4.982047871078076,18.565878985971874,9.94280053624401,358.748,0.30686200000531016,1
13.877299291893397,-21.93891247239124,-37.72600206451974,24.21591021202748,-5.89391712804697,16.741151107530104,10.72447105350705,358.752,0.31086200000532926,1
12.631391900945276,-20.491222262574368,-34.94389009961625,22.920407942682434,-6.64756106026192,15.119161339403547,11.411712239421341,358.756,0.3148620000052915,1
12.160732272769794,-19.70008445540636,-33.83386129925217,22.329822414271746,-6.771160118572342,13.970937945526238,11.843613240663135,358.76,0.3188620000053106,1
12.56926434343243,-19.735875448617033,-34.64001239985627,22.57278308844438,-6.234552413335719,13.540538670578911,11.927854159353338,358.764,0.3228620000053297,1
13.32836452410415,-20.229356348435196,-36.241152734403606,23.20112402726363,-5.519093594734691,13.676903441472671,11.783210684733112,358.768,0.326862000005292,1
13.566006899858975,-20.34017431612872,-36.73184565574897,23.37973912701454,-5.266310007941573,13.623851834011733,11.768732118934091,358.772,0.3308620000053111,1
12.761804581294097,-19.41335064856731,-34.93790452743534,22.546683269135222,-5.7577973277556955,12.593613387331759,12.206951265997338,358.776,0.3348620000053302,1
11.187338962759371,-17.54749345452143,-31.413323302548275,20.894465408602702,-6.6861786206000655,10.464093441581975,13.101097564725766,358.78,0.33886200000529243,1
9.710439690743776,-15.570390667667773,-28.052309609387553,19.250642868753523,-7.407394404548674,7.969152215522689,14.099859906584033,358.784,0.34286200000531153,1
9.094794186897525,-14.379626929815156,-26.56264683940818,18.413533746265365,-7.466229719739344,6.125390328004356,14.774785227795437,358.788,0.34686200000533063,1
9.460455717611692,-14.291972076918915,-27.255268122755517,18.581412413396702,-6.906988741894022,5.4777500873759095,14.934610723184145,358.792,0.3508620000052929,1
10.251243351192882,-14.83663150548598,-28.93063773257181,19.248650968055795,-6.181833129056341,5.686847902205813,14.762360145659642,358.796,0.354862000005312,1
10.697171462726619,-15.145835472199566,-29.875884970905414,19.625766235320548,-5.774279460527951,5.8092938262147165,14.663768379371055,358.8,0.3588620000053311,1
10.388174028595717,-14.659853794479856,-29.1552069420303,19.25187895157797,-5.87746491203626,5.128723057360405,14.923749611012324,358.804,0.36286200000529334,1
9.48203616799484,-13.497571195349984,-27.105356592438714,18.264352213953934,-6.353433620649403,3.7092394485465388,15.500733577942778,358.808,0.36686200000531244,1
8.424513566154973,-12.198961889515585,-24.72703109428409,17.13581047065997,-6.947077252379954,2.179440199434076,16.13330599993061,358.812,0.37086200000533154,1
7.5232246645014875,-11.147530904292601,-22.713443770205444,16.196916045868775,-7.489510933107948,0.9969458019154405,16.63339909532028,358.816,0.3748620000052938,1
6.822696224496402,-10.329149401113314,-21.148100180569127,15.46668020121163,-7.910356792490481,0.07531799435509566,17.02291195410978,358.82,0.3788620000053129,1
6.225723246008017,-9.44132167275686,-19.768120127999516,14.765501123337645,-8.143393917844662,-1.127550949509654,17.489162298765024,358.824,0.382862000005332,1
5.691310667256664,-8.249828532308827,-18.43685652299144,13.973451986732742,-8.090354564085725,-3.074095548683382,18.186372514079956,358.828,0.38686200000529425,1
5.279624852988587,-6.817533667551188,-17.286957346220692,13.1501746562638,-7.710196370225287,-5.701437709124652,19.086325583869407,358.832,0.39086200000531335,1
5.0726458976647955,-5.521153898497431,-16.56952437914196,12.49751799456136,-7.138971890811065,-8.28578456985902,19.945270846083304,358.836,0.39486200000533245,1
4.966932595333834,-4.6794932287486946,-16.159697012638492,12.089795105663978,-6.728801829380671,-9.999349845101253,20.510614214871303,358.84,0.3988620000052947,1
4.6874744565987685,-4.323536797121027,-15.528115271793858,11.78627115238295,-6.87724107119107,-10.431649717417736,20.686797248541986,358.844,0.4028620000053138,1
4.020613906298674,-4.237022177948379,-14.205416968433216,11.378040220870249,-7.734635290585074,-9.790682518196368,20.56910282799413,358.848,0.4068620000053329,1
3.1037165040504697,-4.26486825119111,-12.42226519534509,10.877561790830985,-9.010330320215859,-8.587547568666318,20.303733040536937,358.852,0.41086200000529516,1
2.3542792776531827,-4.36533400918049,-10.983568993789117,10.500682137643967,-10.104287234173318,-7.43379062899098,20.032019450836742,358.856,0.41486200000531426,1
2.191378872389763,-4.5939365450311715,-10.720832217513998,10.504422544077102,-10.478449421935554,-6.729698133666442,19.827114901680275,358.86,0.41886200000533336,1
2.684472390897706,-4.954487951553259,-11.770564210911827,10.929148619254759,-10.04008566504115,-6.553428159402634,19.704944976756387,358.864,0.4228620000052956,1
3.491687713353688,-5.3778871179041055,-13.448688929814283,11.555324003810622,-9.212423488391664,-6.63064144097923,19.622629259924967,358.868,0.4268620000053147,1
4.090244563817487,-5.739222412154152,-14.70448629729176,12.039267771057508,-8.629956362734955,-6.584017818528253,19.52817055583413,358.872,0.4308620000053338,1
4.256070920663219,-6.077565553684476,-15.10998861361326,12.272040370102982,-8.625721620050266,-6.048793464324554,19.33395796090637,358.876,0.43486200000529607,1
4.248644628654344,-6.610254804136092,-15.224264282196176,12.488580420804919,-8.987250477103338,-4.87168504757864,18.956229561554984,358.88,0.43886200000531517,1
4.5278406387046095,-7.514622196771352,-15.987907491508663,13.019158368233358,-9.200885527088989,-3.2367324344502806,18.393148642881314,358.884,0.44286200000533427,1
5.247591476820436,-8.66536499723176,-17.671120495390877,13.897821877279993,-8.972895451018985,-1.6103851370441926,17.77435272658539,358.888,0.4468620000052965,1
6.0761810237371465,-9.675480834761531,-19.532803237450334,14.779003065801216,-8.502903193550365,-0.42791513615107146,17.283918312374926,358.892,0.4508620000053156,1
6.469283098082437,-10.120999111490946,-20.40788101208748,15.18309262148654,-8.257697818826971,0.05918382129828721,17.07501840153811,358.896,0.4548620000053347,1
6.157405408449203,-9.786446545252762,-19.718186969711567,14.870332287055827,-8.464710863688092,-0.28580887195942306,17.22741555510678,358.9,0.458862000005297,1
5.4187065700926285,-8.822023696587243,-18.043026500976485,14.058278036716482,-8.841574922155454,-1.4800700955503265,17.709710608460345,358.904,0.4628620000053161,1
4.812076792532015,-7.631262904903874,-16.570964119965588,13.22620470543087,-8.88804904078776,-3.3350554960818104,18.387050063776087,358.908,0.4668620000053352,1
4.5679166304097345,-6.5472087086628274,-15.832277102178356,12.640749328072683,-8.507853985710618,-5.407590782969098,19.086264621038424,358.912,0.47086200000529743,1
4.261332158060426,-5.570191532629697,-14.997606241015994,12.064779116739183,-8.283858811319746,-7.167704443714551,19.69324975388033,358.916,0.47486200000531653,1
3.217414516549045,-4.511997171661024,-12.703957145932597,11.043435823345597,-9.017416381916698,-8.187368646403497,20.159889006019135,358.92,0.47886200000533563,1
1.2142671588602063,-3.2440068443751633,-8.487071284531888,9.399522476153253,-10.927977384984107,-8.472170939733516,20.517436818611177,358.924,0.4828620000052979,1
-1.1737084174531078,-1.8674179068176469,-3.4927062617646754,7.495721822055713,-13.294619688368252,-8.515721530508438,20.848451982856318,358.928,0.486862000005317,1
-2.975920111892326,-0.6389430336527943,0.3223788766850941,5.980385962807943,-14.955703584167804,-8.96417595363061,21.23197784385039,358.932,0.4908620000053361,1
-3.560775350877474,0.15799006507586935,1.6567308672837215,5.323630287539946,-15.23207509715567,-9.982862995929917,21.63736222406343,358.936,0.49486200000529834,1
-3.1807773951490135,0.5202803756428815,1.0025138544479035,5.385736394306269,-14.472033760785216,-11.250466452321632,21.994746983858725,358.94,0.49886200000531744,1
-2.730049190477795,0.7712252368276901,0.18330700367699668,5.533468898295389,-13.688441020605149,-12.36205963558679,22.292548707869603,358.944,0.5028620000053365,1
-2.9566023263734924,1.3279532865466597,0.7601470769676136,5.176310829090853,-13.631909645499196,-13.30042593273266,22.62452671200017,358.948,0.5068620000052988,1
-3.811420830633156,2.283735464536493,2.6598969428429395,4.3029926527898565,-14.173706100935505,-14.331105063743431,23.069606935142755,358.952,0.5108620000053179,1
-4.6344080132743155,3.3622428698295996,4.52717627725887,3.396606099723071,-14.590906960257463,-15.670493790739426,23.609783517459647,358.956,0.514862000005337,1
-4.817039489950182,4.078227639486105,5.056775310599352,2.9979965733540395,-14.369105639628863,-17.012720367407532,24.065865973547023,358.96,0.5188620000052993,1
-4.362760018889439,4.118136525044637,4.179620047531814,3.235141963643175,-13.719835872932503,-17.666065560248384,24.215762915850657,358.964,0.5228620000053184,1
-3.828021438735606,3.5941158110901883,3.009075209699956,3.7508469741393213,-13.332184102076146,-17.183281456843144,23.98944900272538,358.968,0.5268620000053374,1
-3.8198681262090806,3.0588024775546057,2.8637521139074913,3.9771741302842494,-13.674079628345886,-16.019825974849073,23.61404500765762,358.972,0.5308620000052997,1
-4.436002006255056,3.047182089011182,4.063703236743625,3.6379262436405893,-14.526639875441848,-15.226894413996941,23.44072472629839,358.976,0.5348620000053188,1
-5.190949741181309,3.6190760523948122,5.675693164064545,2.979418484570048,-15.184685681559358,-15.540342840572665,23.641790562283873,358.98,0.5388620000053379,1
-5.444684646803093,4.290784666250009,6.333390469444184,2.5594464158917334,-15.089590679057705,-16.69693287634644,24.047586650621277,358.984,0.5428620000053002,1
-4.926244569288276,4.435304089677638,5.356275345019291,2.7890814881910315,-14.283340505259643,-17.659542646904324,24.2884667985642,358.988,0.5468620000053193,1
-3.864704858574913,3.7488885474477525,3.1181000765742763,3.666241613331962,-13.28040427400243,-17.476909593400354,24.088788488623646,358.992,0.5508620000053384,1
-2.7453614987124384,2.4801258040799063,0.6263088701066718,4.816940275861498,-12.582300833001982,-16.08954922885032,23.493836610516617,358.996,0.5548620000053006,1
-1.9655276941225215,1.241810304656923,-1.1953624821359847,5.765435738415004,-12.329680055241138,-14.346048369179554,22.829372557607194,359.0,0.5588620000053197,1
-1.5983841513100554,0.48126138506887295,-2.0959220679110775,6.285543088439048,-12.3278556813125,-13.135948050804528,22.39130547783021,359.004,0.5628620000053388,1
-1.4125016271398716,0.11356328104557424,-2.5476724858561086,6.541676896278426,-12.315479817604963,-12.561348335077366,22.181762088354244,359.008,0.5668620000053011,1
-1.1257152070760472,-0.3080146774638442,-3.2094232122319584,6.876479361623737,-12.200273326961542,-11.994309112463931,21.961256174573546,359.012,0.5708620000053202,1
-0.6650265741642137,-1.0577717730774854,-4.289984150723296,7.444353322896331,-12.063053923224096,-10.924388185848343,21.555871284141052,359.016,0.5748620000053393,1
-0.17923826721047728,-1.974635298368492,-5.459938780285884,8.09547374609233,-12.001633897751736,-9.519370264835986,21.039342762360164,359.02,0.5788620000053015,1
0.11204760847894017,-2.607951404394471,-6.181658630739557,8.52050948825485,-12.019913272684171,-8.493724685669829,20.670690896754174,359.024,0.5828620000053206,1
0.12070280797530406,-2.679888996326673,-6.215944753723031,8.55514565257406,-12.055492319822568,-8.34679091587077,20.62226852519363,359.028,0.5868620000053397,1
-0.01743188966835331,-2.4023830277199534,-5.879206375475294,8.363040799883379,-12.061880186211024,-8.783129636694762,20.780990315885965,359.032,0.590862000005302,1
0.019122207049007762,-2.4272515421908,-5.956575670392009,8.393756114482091,-12.02815656283849,-8.77414007297902,20.773245526869164,359.036,0.5948620000053211,1
0.4440510075756104,-3.2335732090221114,-6.9810034838282125,8.965095088592296,-11.977282353196001,-7.535665625735416,20.31837857561379,359.04,0.5988620000053402,1
1.1547164787778015,-4.663327804053015,-8.713929331993107,9.954276525166497,-11.945778428794045,-5.286301219353391,19.500343780249217,359.044,0.6028620000053024,1
1.7953518858336812,-6.002686831518662,-10.28829661511689,10.866901858189001,-11.950683645977378,-3.147889094474095,18.727302443064314,359.048,0.6068620000053215,1
2.1027238232595176,-6.636291285463233,-11.0414879103106,11.301039853822907,-11.947094614051345,-2.1416481155896245,18.36275824833236,359.052,0.6108620000053406,1
2.112916890659603,-6.501827571273109,-11.028880551380746,11.251025101590214,-11.844428912871498,-2.4491403872932715,18.4603354305688,359.056,0.6148620000053029,1
2.158875610285235,-6.148142159619222,-11.033096853886635,11.130161604289933,-11.54812644795185,-3.2817999591386826,18.722128206021225,359.06,0.618862000005322,1
2.575270156048279,-6.236985902021347,-11.867421360932891,11.3994919950662,-11.035728985983209,-3.605680834578023,18.771054932400947,359.064,0.6228620000053411,1
3.3958252653660095,-6.993390780706552,-13.652087779364216,12.171077044285031,-10.409414371593945,-2.9694344526538146,18.457425074667455,359.068,0.6268620000053033,1
4.260507950636645,-7.984231598642309,-15.579568692968763,13.064427978635566,-9.877214892386004,-1.8741802017529052,17.99025945647774,359.072,0.6308620000053224,1
4.7489732988219355,-8.601390489277982,-16.682298431890224,13.592879124491542,-9.61444800822845,-1.1295637978860953,17.68584830396923,359.076,0.6348620000053415,1
4.756768501700078,-8.64835509057835,-16.708868763376373,13.616689025019317,-9.634734947681995,-1.036309149119494,17.654810424036782,359.08,0.6388620000053038,1
4.576050950813038,-8.508368146445122,-16.32224795718341,13.45777756887212,-9.790219364782493,-1.1181125335517368,17.705119482277567,359.084,0.6428620000053229,1
4.59026956350942,-8.726541879995866,-16.402745673465454,13.556104416325311,-9.914622198453717,-0.6575030792622168,17.555038851342495,359.088,0.646862000005342,1
4.946307697852933,-9.51013724123663,-17.287197555614508,14.079558149848495,-9.943227233511212,0.6169567157938065,17.097739466867097,359.092,0.6508620000053043,1
5.438470254141484,-10.516990888723514,-18.491349674500974,14.771519963229547,-9.932420978654319,2.2113275935299335,16.51944373097784,359.096,0.6548620000053234,1
5.719639853426961,-11.157581560738535,-19.195080012497833,15.193920333755498,-9.969370740187307,3.265522614443158,16.142949511798047,359.1,0.6588620000053425,1
5.673057486089809,-11.201799898173611,-19.11483553850557,15.186226913025477,-10.062413533198942,3.420489005993167,16.099275564769677,359.104,0.6628620000053047,1
5.567696104904097,-11.072459409319144,-18.877891838816065,15.073806626766547,-10.121585156652761,3.2681632099151936,16.162270463202105,359.108,0.6668620000053238,1
5.807437098625044,-11.49198883615421,-19.447309570946167,15.381489256209875,-10.069540255382726,3.8893109657270215,15.930601341921154,359.112,0.6708620000053429,1
6.539807718233515,-12.79931923226945,-21.193011331593066,16.332072361136426,-9.927525163991032,5.843238888093362,15.204736760390242,359.116,0.6748620000053052,1
7.559094334195573,-14.68047636334835,-23.63752146989018,17.680605211714717,-9.770544460495087,8.697832086308724,14.151010661514581,359.12,0.6788620000053243,1
8.47201076485014,-16.374335777460495,-25.829108000596236,18.892143423666823,-9.635891951742163,11.274291678386817,13.20088986289507,359.124,0.6828620000053434,1
8.96578683404571,-17.19582424440515,-26.991599589581575,19.50821158785061,-9.500611992761627,12.460261511126454,12.753775893725527,359.128,0.6868620000053056,1
8.941093126769621,-16.91692020805506,-26.875972373821153,19.378875359865667,-9.350517688564747,11.879555802231016,12.943885981574642,359.132,0.6908620000053247,1
8.507991618399428,-15.851342647822154,-25.77291788264615,18.69556583064759,-9.241601882715411,10.08287335133444,13.57943161280225,359.136,0.6948620000053438,1
7.8333903843437644,-14.5003418374695,-24.129431325647154,17.75915021033772,-9.275594972108268,7.9612457648978925,14.351581775645547,359.14,0.6988620000053061,1
7.120585841285353,-13.296049422425314,-22.446833130291203,16.862180666883233,-9.458740027871572,6.208844972345618,15.010011100073868,359.144,0.7028620000053252,1
6.657759065067468,-12.541619710914201,-21.360968743099978,16.29117691036315,-9.595809525382215,5.131343154857907,15.418118849107843,359.148,0.7068620000053443,1
6.795669672011951,-12.496990214813765,-21.619396464743964,16.349699597132915,-9.377258403189709,4.861717058608411,15.486558754994121,359.152,0.7108620000053065,1
7.644614180668479,-13.191048324753577,-23.44441033088078,17.11130833099707,-8.670891808868133,5.325913732925298,15.224514219911612,359.156,0.7148620000053256,1
8.908328098289232,-14.355591938896255,-26.192834553284392,18.299449750644865,-7.7060753337989425,6.304958268593516,14.741765708451954,359.16,0.7188620000053447,1
10.009694319797392,-15.525456496397227,-28.625624730773374,19.39913721779496,-6.967393519982564,7.497888336666713,14.211754872894085,359.164,0.722862000005307,1
10.50350904010115,-16.37141031615906,-29.79410603897864,20.02536268068655,-6.848197146196454,8.737447420973053,13.74739435957338,359.168,0.7268620000053261,1
10.347727073546361,-16.849551816479654,-29.60558891677492,20.13645930400358,-7.377186069463279,9.979757897086836,13.368382528081032,359.172,0.7308620000053452,1
9.900077034777535,-17.191797640739004,-28.814462125940622,20.028270654428496,-8.216777043450358,11.287683496301845,13.007005624622042,359.176,0.7348620000053074,1
9.577909196427813,-17.61443559926317,-28.28772425634463,20.023459436555544,-8.937320180545909,12.615558952145111,12.622552451025193,359.18,0.7388620000053265,1
9.54170531391277,-18.09391263042766,-28.332959391575326,20.201884264941285,-9.303214218970131,13.711851179465597,12.274645482653437,359.184,0.7428620000053456,1
9.700026546153206,-18.46002373593931,-28.730523532786226,20.441969794058803,-9.32758603569973,14.317301883194745,12.058835081018511,359.188,0.7468620000053079,1
10.019372639814923,-18.763911728538346,-29.42738383968208,20.746196660712585,-9.0901062720664,14.585763491588091,11.93006904817123,359.192,0.750862000005327,1
10.642778694404118,-19.333527042625352,-30.78203928044434,21.33030476847803,-8.610938811958167,15.058064324810964,11.695357347334744,359.196,0.7548620000053461,1
11.632154347014895,-20.367249054788225,-32.96330053100832,22.311052057922364,-7.936032709070488,16.092013195738076,11.231362694191677,359.2,0.7588620000053083,1
12.676127094930413,-21.563061665075953,-35.29032511225824,23.38943978645832,-7.293168295197112,17.413320509160712,10.667667681981838,359.204,0.7628620000053274,1
13.158985640070203,-22.22380891623929,-36.392646837399816,23.93281813382798,-7.066839470807353,18.260483066844984,10.331008383703292,359.208,0.7668620000053465,1
12.61201942492812,-21.816165412253742,-35.2263654199888,23.458498699059906,-7.548017620523314,18.048072965332384,10.471957363445457,359.212,0.7708620000053088,1
11.146575455208433,-20.452535057413762,-32.036014889361084,22.07522763391172,-8.658152272247383,16.88382885728475,11.041070272617324,359.216,0.7748620000053279,1
9.499907081141247,-18.925698978779007,-28.452441198776185,20.523142800859187,-9.909151996175387,15.587508269583482,11.676734022146658,359.22,0.778862000005347,1
8.490198614085498,-18.048224895607163,-26.269259548056056,19.595772966627774,-10.714996485549651,14.92144103770812,12.02506831079145,359.224,0.7828620000053093,1
8.405894351009723,-17.985358645534703,-26.08949114920984,19.522650931578905,-10.78913711998452,14.888623448076954,12.046818184063454,359.228,0.7868620000053284,1
8.883074337683988,-18.212129746746907,-27.075818074608073,19.88306691045849,-10.284358032740151,14.7914177760263,12.014746829926333,359.232,0.7908620000053475,1
9.425962098417457,-18.225965256222935,-28.138938541495396,20.191958714575247,-9.549029087648444,14.145530495808066,12.150481576566003,359.236,0.7948620000053097,1
9.873545042771923,-18.042597043574972,-28.968341519347018,20.365931069801107,-8.814320857799176,13.186008860340806,12.39977444780734,359.24,0.7988620000053288,1
10.426969551774267,-18.09605691703666,-30.06160967896788,20.697122734742212,-8.090678016614977,12.613868761956752,12.510383564146299,359.244,0.8028620000053479,1
11.2670971177426,-18.66108878615402,-31.83822103996678,21.40035381091935,-7.3113002714806985,12.806173016189266,12.336986152750288,359.248,0.8068620000053102,1
12.285436727024333,-19.56461430940846,-34.04454930728019,22.343336268868807,-6.51080273792837,13.518604017362952,11.972589341360921,359.252,0.8108620000053293,1
13.128868819895713,-20.337417671664827,-35.87783826048336,23.134490009182638,-5.863933165429045,14.16230660813784,11.653523660361037,359.256,0.8148620000052915,1
13.593189903881724,-20.81605080851676,-36.899948480657095,23.59206886028541,-5.54290768902499,14.633295715768615,11.4403524982631,359.26,0.8188620000053106,1
13.831488922618407,-21.37007974434637,-37.49906530748151,23.954667864873954,-5.58155184705225,15.55111387448559,11.11342623690219,359.264,0.8228620000053297,1
14.126318520348438,-22.459357964185216,-38.3379274243356,24.570582370800715,-5.895710215230643,17.571988459712532,10.424106252889787,359.268,0.826862000005292,1
14.40483560552133,-23.832306124718727,-39.21352027520108,25.29490883108031,-6.419337587658385,20.23509470827402,9.530324842702534,359.272,0.8308620000053111,1
14.21718143772607,-24.506790486418456,-39.010249188070276,25.469549944720313,-7.121534069856435,21.94756366427979,9.00427869761899,359.276,0.8348620000053302,1
13.22621195366517,-23.617212151939132,-36.86072197861595,24.547629699080275,-7.893698464853077,21.231618048724858,9.366172893937847,359.28,0.8388620000052924,1
11.740322782166102,-21.40552976776754,-33.42545162249617,22.801603373667845,-8.472520555360239,18.23358657492557,10.527989214864418,359.284,0.8428620000053115,1
10.658624081344628,-19.302620623463262,-30.80549986142356,21.32634898981695,-8.568825339512701,14.970568667647749,11.721404085590216,359.288,0.8468620000053306,1
10.802825439066392,-18.920641659806666,-30.994656762946825,21.248624547862036,-8.119142566436155,13.953507976103126,12.029483026158108,359.292,0.8508620000052929,1
12.156725225660676,-20.679730253768618,-34.062859230806275,22.733440815408958,-7.422798871047674,16.123686777655173,11.151535536897779,359.296,0.854862000005312,1
13.765735228640128,-23.336854973577008,-37.84615629920954,24.732762046839756,-6.9689428317490885,19.94493885843498,9.708517970620797,359.3,0.8588620000053311,1
14.523729812033576,-25.01212232351462,-39.73082410455697,25.85008617122891,-7.034469744124256,22.673607915652283,8.7299922732811,359.304,0.8628620000052933,1
14.148855073677685,-24.80877343159349,-38.94987023153364,25.556503141304223,-7.414407632514515,22.694732784249084,8.772960296410652,359.308,0.8668620000053124,1
13.394929424576365,-23.508040474701886,-37.1636855812222,24.596616499265277,-7.590332301355316,20.78211787309086,9.488394560346912,359.312,0.8708620000053315,1
13.297413139833866,-22.7080051990006,-36.77992222920946,24.21071592031878,-7.1963766011790495,19.14960116590725,10.026573803329248,359.316,0.8748620000052938,1
14.22589371488131,-23.36711733219287,-38.751751274106105,25.002261544282465,-6.357894026913355,19.43811293673617,9.810494437312428,359.32,0.8788620000053129,1
15.57182768706954,-25.009373747370738,-41.776160531031785,26.434227302093642,-5.595414864985848,21.362073194589144,9.012820959636068,359.324,0.882862000005332,1
16.355659972870807,-26.317963200106046,-43.62262541754621,27.414069293411305,-5.383661542857062,23.254660892717194,8.299860001510037,359.328,0.8868620000052942,1
16.1503318168515,-26.454265621187353,-43.2547523830978,27.355878274907443,-5.755126024489969,23.809244220847084,8.148689716169146,359.332,0.8908620000053133,1
15.478232621037627,-25.871841015400737,-41.80194611756836,26.73927215321303,-6.292617099291288,23.369512616556285,8.379386841453503,359.336,0.8948620000053324,1
15.211425504078438,-25.671179478673896,-41.232601619711225,26.507149689942775,-6.5261358611440174,23.261920362698067,8.449421402809934,359.34,0.8988620000052947,1
15.660282109414899,-26.33766682320953,-42.26993547934211,27.03391869588765,-6.350219410082135,24.164020150787426,8.099600756543888,359.344,0.9028620000053138,1
16.247491189919327,-27.136839002683594,-43.609423700828955,27.69291643110189,-6.072096935158243,25.184684172376258,7.693267845273404,359.348,0.9068620000053329,1
16.121099722717926,-26.87133897890884,-43.298511707456086,27.51234316983972,-6.070300221716473,24.7600397206976,7.846668294826222,359.352,0.9108620000052952,1
14.977133839174071,-25.055050990207338,-40.62629560218937,26.12106134323999,-6.441037538325628,22.20296471968703,8.82122422862129,359.356,0.9148620000053143,1
13.408207858447591,-22.53423028774571,-36.95419710740296,24.20059306182463,-6.929828813525088,18.630614507093398,10.178840781308178,359.36,0.9188620000053334,1
12.39886308685091,-20.839934589323377,-34.574266516062856,22.935026494379773,-7.196424402246299,16.173309377998876,11.103426548402995,359.364,0.9228620000052956,1
12.497998344129565,-20.939765219684723,-34.791922416088404,23.031744386500254,-7.126326789501407,16.268693544636182,11.059578150008566,359.368,0.9268620000053147,1
13.376259337104745,-22.42332187131187,-36.865019061780025,24.136804252374496,-6.9004876283239325,18.427255928232412,10.248509043704223,359.372,0.9308620000053338,1
14.236130928148436,-23.995379575956004,-38.92361189193403,25.2682600619309,-6.758238143707979,20.8027522189614,9.37008640255731,359.376,0.9348620000052961,1
14.54931377602626,-24.603649912521327,-39.682022431667676,25.695147357515356,-6.729971094248701,21.74621307946609,9.024969225430027,359.38,0.9388620000053152,1
14.423918259778006,-24.169870795098824,-39.332374760588756,25.445414157376735,-6.615816983069415,20.951396043516542,9.297334078085735,359.384,0.9428620000053343,1
14.29499146377422,-23.330835723938307,-38.87786684726845,25.025816122158446,-6.239211025162848,19.272501768130876,9.8546042423061,359.388,0.9468620000052965,1
14.416772555964773,-22.716004396675597,-38.966967095298024,24.83910366969351,-5.6666906620779445,17.772866424015366,10.320919504377938,359.392,0.9508620000053156,1
14.641197387823054,-22.43228506222521,-39.336482267757475,24.846885535765647,-5.1718075572423725,16.871302147127313,10.581189816509076,359.396,0.9548620000053347,1
