Fz,FC3,FC5,F3,FC4,FCz,Cz,Time,t_rel,idx
-5.807506694567042,-8.25865138942964,-22.03162186139785,48.835921866291535,-3.6270728307574744,-1.9559722407878959,-7.155096849351607,55.084,-1.9989887000145359,0
-6.892989120469769,-3.0521238216003375,-22.78604287061848,46.271038091503414,1.6241418178449973,-4.120143847018235,-11.043880249641562,55.088,-1.994988700014538,0
-7.735388848843995,-1.4719898691082498,-23.06845215538041,46.08249576068249,3.0990003923318277,-5.045456824134919,-11.86020845554671,55.092,-1.9909887000145403,0
-8.166228849544641,-3.85989840795991,-22.49384918461087,48.10994023123771,0.745246713939839,-4.560334938814351,-9.774875564247758,55.096,-1.9869887000145425,0
-8.79037099569136,-6.731687915739345,-21.533604912633667,50.45248264605702,-1.7556489700152824,-4.099155659564158,-7.5420141924131725,55.1,-1.9829887000145376,0
-10.212139578888175,-6.48381870766534,-20.92051145912706,51.3257112817173,-0.9589206429747655,-5.053610576528576,-7.696710316533348,55.104,-1.9789887000145399,0
-12.25414858037218,-2.938015098072417,-20.92949653443659,50.64112532079377,2.8823744357148544,-7.265571682605186,-10.136267861022192,55.108,-1.974988700014542,0
-13.982796917880984,0.6417662887407011,-21.167443951794173,49.85139184398506,6.189771690434757,-9.13691049581431,-12.395778457671012,55.112,-1.9709887000145372,0
-14.526258031609606,0.881095402629468,-21.010048089668523,50.33702662254208,5.735158525635426,-9.199928782990845,-12.217045646537953,55.116,-1.9669887000145394,0
-13.873801648123706,-2.419263131414516,-20.236352377555104,51.99538445303347,1.8916344847795392,-7.5670264857437575,-9.79057529497591,55.12,-1.9629887000145416,0
-12.874688553667538,-6.223810546844379,-19.259048067245605,53.40437451223258,-1.7251397220189169,-5.839801883635828,-7.481885738820256,55.124,-1.9589887000145367,0
-12.454588478614115,-7.331401643186805,-18.739299778863717,53.322798763155575,-1.792064408917433,-5.590127234608303,-7.415317218965181,55.128,-1.954988700014539,0
-12.814607842979516,-5.471309889035971,-18.930004328642386,51.98349310189185,1.4989243712299278,-6.887414651662827,-9.379080760801054,55.132,-1.9509887000145412,0
-13.34302622592383,-3.4808710970760126,-19.32293672440978,50.895141344796194,4.589186234870311,-8.238424608432151,-11.099068923824651,55.136,-1.9469887000145363,0
-13.243124034375816,-4.574240455899724,-18.919122463223,51.373223001857475,3.811097303686025,-7.923387264446255,-10.524446087598633,55.14,-1.9429887000145385,0
-12.227509917116118,-9.424488303927388,-16.94800757746426,53.25354199438593,-1.3760780022694556,-5.453640732316703,-7.823817461291934,55.144,-1.9389887000145407,0
-10.669967044172866,-15.699390435401623,-13.522369076665068,55.02369846273212,-8.053723271157523,-1.8978543528437035,-5.180394282491338,55.148,-1.9349887000145358,0
-9.205875620129792,-20.183070194707156,-9.748622773214326,55.21792743381386,-12.435429212891304,1.0438985494221875,-4.688828182293433,55.152,-1.930988700014538,0
-8.260948053601844,-21.315378313376968,-7.159098521666683,53.742140526086146,-12.84157054262141,2.278048078756843,-6.443193173576027,55.156,-1.9269887000145403,0
-7.9091642277968015,-19.98112023780716,-6.773914059582862,51.92329906874686,-10.547790041695903,1.870084457994455,-8.581394959858521,55.16,-1.9229887000145425,0
-8.01813590506805,-18.291532470140194,-8.387819370654881,51.30209233393235,-8.210834176464832,0.6993091522115695,-9.093079563815934,55.164,-1.9189887000145376,0
-8.386320946434905,-17.806423717686066,-10.61891591229311,52.3028591527248,-7.6200497673205,-0.26853651362094555,-7.602612295369232,55.168,-1.9149887000145398,0
-8.751827513227255,-18.657850399224483,-11.80490764890577,53.926620721519846,-8.635520276020364,-0.5164552532906033,-5.560059630851335,55.172,-1.910988700014542,0
-8.84378539854365,-19.821438238945074,-11.204414568911949,54.63004313070614,-9.723089041890265,-0.14986416052848653,-4.887451721886664,55.176,-1.9069887000145371,0
-8.619126615519317,-19.862052029098848,-9.608781034835374,53.55202739623886,-9.185244683394249,0.1831301134566716,-6.459953146847676,55.18,-1.9029887000145393,0
-8.489132342130155,-17.61064865596772,-8.780806842128182,51.08534169651967,-6.104504007712824,-0.41769955414690646,-9.682550294433826,55.184,-1.8989887000145416,0
-9.15706150760556,-12.76667864957097,-10.019653637500648,48.463396035910165,-0.7290854562353798,-2.5658102975286523,-13.225106487468933,55.188,-1.8949887000145367,0
-11.007330875228675,-6.418183285487757,-12.948969094312703,46.838556239132394,5.534402346663907,-5.988061465396709,-16.01041386537044,55.192,-1.890988700014539,0
-13.548336436214637,-0.9809440408782377,-15.593579537086306,46.599029818191774,10.535451484634295,-9.372917924730082,-17.638703363916726,55.196,-1.886988700014541,0
-15.56126634585987,0.9737653508851005,-15.829590355055014,47.324738909273336,12.37020508194015,-11.062555506519786,-18.21529713466388,55.2,-1.8829887000145362,0
-16.03400268080758,-1.3954422411580214,-13.115451082913191,48.2438801229735,10.669791048145491,-10.295135923477883,-18.07363924276229,55.204,-1.8789887000145384,0
-15.135971093275579,-6.073839711980252,-9.079338172277543,48.768914939427894,7.243409851221502,-8.024238599548012,-17.698937213568,55.208,-1.8749887000145407,0
-14.27317305102224,-9.153974263017512,-6.422169076675725,48.774546559376866,5.21147378967016,-6.458326233752918,-17.678377724578606,55.212,-1.8709887000145358,0
-14.99855309935943,-7.580317369679267,-6.979854456030105,48.5410648862033,6.891380638054345,-7.46959274327609,-18.40412785591273,55.216,-1.866988700014538,0
-17.631452391625277,-1.6148163895543906,-10.470686499271105,48.493597650913,11.951424861746013,-11.078042187690786,-19.650025044517374,55.22,-1.8629887000145402,0
-20.823289969281024,5.119590856377182,-14.846054463046238,48.9292025469998,17.420368038393455,-15.298610896766078,-20.501206112676993,55.224,-1.8589887000145424,0
-22.550437164376795,8.260227564139507,-17.835166699400396,49.87135512186882,19.746429791760416,-17.56794673232348,-19.924461881667934,55.228,-1.8549887000145375,0
-21.755890454868428,5.969426315217971,-18.40425330288542,51.09146338194586,17.392611288518072,-16.649455295565037,-17.643901932362922,55.232,-1.8509887000145397,0
-19.249408266417756,0.2455086191399617,-17.118709091856836,52.24533828820175,11.963529573480171,-13.514564488373738,-14.57169463417344,55.236,-1.846988700014542,0
-17.08918939247512,-4.68864205121119,-15.413190647920032,53.03336091913766,7.023931320747428,-10.55221746717548,-12.314052681103245,55.24,-1.842988700014537,0
-16.963279669287846,-5.5314517471677656,-14.55671661990671,53.319963742839526,5.562196249618824,-9.795200094326107,-12.035511861769827,55.244,-1.8389887000145393,0
-18.91379056415919,-2.13434213324195,-15.053794131738064,53.19958919318876,7.983237254716238,-11.540150164892726,-13.54074945387295,55.248,-1.8349887000145415,0
-21.4049187846776,2.668292140601813,-16.625001678976144,53.0079395585374,11.959326447807873,-14.298599123989186,-15.307038559304129,55.252,-1.8309887000145366,0
-22.58422942171622,5.179275676813841,-18.469021740710264,53.242852287325654,14.051166009019989,-15.942815042444654,-15.477227768288277,55.256,-1.8269887000145388,0
-21.65191246527671,3.1938648674772123,-19.566607935347434,54.355278863870716,11.87932087754714,-15.110353683058927,-13.099590525211909,55.26,-1.822988700014541,0
-19.28465387110472,-2.931333547973235,-19.04844946998228,56.464148423883806,5.461680004285699,-11.925497009178924,-8.735894529930217,55.264,-1.8189887000145362,0
-16.92387515366929,-10.870534074905514,-16.651560263199308,59.1796702830584,-2.9807657374934355,-7.709866085820336,-4.0430689679704175,55.268,-1.8149887000145384,0
-15.633557643206098,-17.888963131207422,-13.013130621067521,61.726559520500274,-10.478330730178676,-4.037822258298627,-0.6747551365418895,55.272,-1.8109887000145406,0
-15.449810954066377,-22.306348013120868,-9.434631532564387,63.35984950125195,-15.050191500945395,-1.8151412383087548,0.6962737377538882,55.276,-1.8069887000145357,0
-15.621903247044074,-24.07863210352208,-7.106675158177615,63.79971342689196,-16.629277685496323,-0.9341773080615474,0.5709520754097328,55.28,-1.802988700014538,0
-15.406482720330002,-24.307843661377273,-6.342636113376868,63.34318259595372,-16.620301945662593,-0.6431748741932184,-0.022743281013725365,55.284,-1.7989887000145401,0
-14.713967811759138,-24.112314379481735,-6.501036002908848,62.55614068365577,-16.48334033955145,-0.3037141964633223,-0.44176795349118925,55.288,-1.7949887000145424,0
-14.117167473442011,-23.69021202508361,-6.719280823922925,61.812792827386936,-16.48298133193667,0.050771661738911684,-0.8539228347405592,55.292,-1.7909887000145375,0
-14.266054181510764,-22.313392016712687,-6.810488540753846,61.08362402566684,-15.65854614284985,-0.18801105326027687,-1.847132090579423,55.296,-1.7869887000145397,0
-15.187672770405548,-19.309735481065143,-7.47551959516832,60.13011804001133,-13.075433400663105,-1.4936741122852581,-3.588082680423879,55.3,-1.782988700014542,0
-16.012265342802717,-15.22573516218011,-9.618463435679125,58.87315277593966,-9.251406981688273,-3.466873891514256,-5.2984079620751245,55.304,-1.778988700014537,0
-15.361330107191295,-12.04784610286793,-13.435504977733476,57.549950716871734,-6.3644975451839505,-4.773198124222314,-5.567573859672684,55.308,-1.7749887000145392,0
-12.181270637997802,-12.032347389087837,-18.18859347796245,56.51039168404046,-6.82793558849018,-3.969116640931965,-3.3111279495701726,55.312,-1.7709887000145415,0
-6.490299923738593,-15.91777344728952,-22.903033919919594,55.87899373632482,-11.296442419427247,-0.6561662783095887,1.3847222523597529,55.316,-1.7669887000145366,0
0.4764633777074697,-22.007517139473922,-27.292131101593508,55.43606526548306,-17.819021095348376,3.987361082004872,7.2187796112204135,55.32,-1.7629887000145388,0
6.879717245377311,-27.066171371964796,-31.954223716309244,54.830718972028855,-23.006412391974255,7.847750790529886,12.468620472312296,55.324,-1.758988700014541,0
11.305452644087229,-28.517580915133404,-37.59139728571903,53.89660208694344,-24.40783552777134,9.310574936941736,16.004184060651422,55.328,-1.754988700014536,0
13.557208566586992,-26.29040274522878,-43.98784457441208,52.75901648764635,-22.244545928042815,8.415265150885032,17.791303042565318,55.332,-1.7509887000145383,0
14.66990925699954,-22.8515158702538,-49.78146150234437,51.66734650845191,-19.147995130376042,6.814687076073865,18.629029661448946,55.336,-1.7469887000145405,0
16.112168360789404,-21.379653324634624,-53.35221378888898,50.77526784768025,-18.159493018275388,6.543863801684399,19.460060121644943,55.34,-1.7429887000145357,0
18.71868508935794,-23.48839038071591,-54.09910216450351,50.10953122931911,-20.588762052876216,8.537117913130595,20.810920366287988,55.344,-1.7389887000145379,0
22.113816261849504,-28.21482068779848,-52.98119991902386,49.716597968637366,-25.32249699207461,12.019221967378437,22.66888140103168,55.348,-1.73498870001454,0
25.053307502972327,-32.94580169141953,-51.830748031074194,49.75597912806382,-29.934634499812947,15.19314155915723,24.708756032113314,55.352,-1.7309887000145423,0
26.43544371980917,-35.458253707825406,-52.016399719641484,50.3760159749087,-32.576118807053135,16.63996813813373,26.59934440166844,55.356,-1.7269887000145374,0
26.21511753542799,-35.48960805180384,-53.5664709686064,51.48430181101694,-33.18544855677333,16.339429208752364,28.202679021986302,55.36,-1.7229887000145396,0
25.508664610056687,-34.73565863345233,-55.409118848632424,52.688000489552486,-33.256210765226555,15.57638990634802,29.627933241354132,55.364,-1.7189887000145418,0
25.789978753668617,-35.41167695945867,-56.40990679822775,53.52641132994328,-34.53160153099672,15.88603497522672,31.150760229844536,55.368,-1.714988700014537,0
27.787146692015472,-38.527897879998086,-56.27591257318712,53.801591796019,-37.68035384439954,17.892194744256777,33.003231065293505,55.372,-1.7109887000145392,0
30.933144867522632,-43.13311359483995,-55.633282158784034,53.68211653449739,-41.85908209638545,20.90015183915061,35.11006460883882,55.376,-1.7069887000145414,0
33.7991148461676,-47.01121935771649,-55.359944337754676,53.472255541968394,-45.356761467235614,23.48161746022546,36.974937314345325,55.38,-1.7029887000145365,0
35.175212727072456,-48.29436800414157,-55.8318909906084,53.289628387833076,-46.81661561003297,24.55919834804678,37.91883514183062,55.384,-1.6989887000145387,0
34.96771269055881,-46.870839647491486,-56.673390048744714,53.0030327861762,-46.2417110876928,24.194150435139424,37.62104487205455,55.388,-1.694988700014541,0
34.238961007387644,-44.63237177582167,-57.08278531041863,52.51209402859768,-45.16754389181863,23.55665209467874,36.57499384739487,55.392,-1.690988700014536,0
34.38618872492101,-44.35404745714426,-56.37771146852889,52.06399127170562,-45.84973322112903,24.1398079721584,35.991504178017124,55.396,-1.6869887000145383,0
36.097585567260715,-47.86011506781523,-54.38769326750051,52.208134036539555,-49.848355556010475,26.747182686472534,37.04326160105337,55.4,-1.6829887000145405,0
38.85481542560035,-54.616019053317,-51.56978155573856,53.32172827768342,-56.792327693297665,30.884082961487746,39.91750163758168,55.404,-1.6789887000145356,0
41.31308926075368,-61.71959621747293,-48.890186324747674,55.100532473625414,-64.16633900201285,34.92893399305156,43.43356581680277,55.408,-1.6749887000145378,0
42.25126468233776,-65.47840409121048,-47.49018339917729,56.5400570529442,-68.50955123934888,37.02639194287254,45.66042505158211,55.412,-1.67098870001454,0
41.412593887272685,-63.73639060985837,-48.14227283733872,56.558608312862816,-67.5348928202151,36.227811633504544,45.21454243377212,55.416,-1.6669887000145422,0
39.67250241870993,-57.46899167110064,-50.688218471151956,54.83608241529379,-61.864686148048364,33.19482021441681,42.31849124188042,55.42,-1.6629887000145374,0
38.44386212051337,-50.439768000779516,-53.87899856980948,52.18239778071934,-55.02963766341357,29.941240541358376,38.78090379141144,55.424,-1.6589887000145396,0
38.73153605787274,-46.924415274434665,-55.93726353175784,50.0740031324258,-51.410208694620515,28.64287412713713,36.82347418337731,55.428,-1.6549887000145418,0
40.47020843940605,-48.94000801439923,-55.62846622607119,49.66122101970619,-53.35632855727856,30.225781042231883,37.56759229640484,55.432,-1.650988700014537,0
42.594769318716445,-54.96320962171917,-53.080357531061985,50.99395527928149,-59.578956971259544,33.7399013004983,40.29389822554445,55.436,-1.6469887000145391,0
43.804149210725924,-61.1571058541485,-49.639628584021686,53.05123551040462,-66.14927022790843,37.06416161817566,43.02645832677237,55.44,-1.6429887000145413,0
43.48641962812784,-64.21591224741078,-46.815802846543555,54.519758635994584,-69.43788626302175,38.48146143368604,43.98196165916759,55.444,-1.6389887000145364,0
42.125910466549854,-63.5962827563626,-45.19855817950086,54.686515457345486,-68.67976866879741,37.89666659618873,42.765517084576786,55.448,-1.6349887000145387,0
40.87307496720091,-61.374861716999504,-44.30210260445333,53.771390578534756,-66.08869579680493,36.69078205088366,40.43041252163843,55.452,-1.6309887000145409,0
40.608350124142206,-59.99666905000595,-43.424354385031926,52.534348194232464,-64.53065809848093,36.34826172864014,38.46072148650397,55.456,-1.626988700014536,0
41.26425845527169,-60.02561181927661,-42.60445773589446,51.58718503680592,-64.9130397761868,37.09720798427523,37.59445785500501,55.46,-1.6229887000145382,0
41.980901546213225,-59.95788840736367,-42.64579759363073,51.012113921982255,-65.66141378261061,37.814280106096625,37.457804209312876,55.464,-1.6189887000145404,0
41.96060316676067,-58.179336434029615,-44.13093682477577,50.532357208623736,-64.66504053953078,37.2741563707802,37.20819705217154,55.468,-1.6149887000145355,0
41.2578693063062,-55.07172237450302,-46.4547059039683,49.96243861436829,-61.72143116833276,35.53252290353765,36.49502862259189,55.472,-1.6109887000145378,0
40.78091493008307,-53.1179152145474,-47.98162429633072,49.466790265826134,-59.06399867122051,34.079542866247,35.83629011994239,55.476,-1.60698870001454,0
41.49289264109909,-54.82067192016042,-47.3287804773852,49.41389344006875,-59.46248086545203,34.581009381928475,36.12413779990126,55.48,-1.6029887000145422,0
43.54053753310557,-60.42495655794923,-44.57191287845647,50.02769713374842,-63.76602339948424,37.40449721469109,37.790160954344806,55.484,-1.5989887000145373,0
46.10197463067044,-67.64793667680718,-41.1433311777107,51.19375377415133,-70.24955606026134,41.33669698058915,40.40839852936827,55.488,-1.5949887000145395,0
48.06440086127626,-73.64182942967615,-38.45217880013406,52.56321236269526,-76.26702073700189,44.71604278601801,43.01737295682253,55.492,-1.5909887000145417,0
48.87254516261746,-77.23169167688461,-36.56998499919696,53.78546674751897,-80.43337697032675,46.81838464895207,44.758657087319776,55.496,-1.5869887000145368,0
48.77396808078901,-79.2889472558879,-34.319752901197866,54.62723086537476,-83.1768971627971,48.14260236021075,45.24179601350828,55.5,-1.582988700014539,0
48.31608361974117,-81.07299256795477,-30.72114957655959,54.93953679741795,-85.34190880561572,49.420804031903614,44.45962650106729,55.504,-1.5789887000145413,0
47.673373700496604,-82.43493044177761,-26.34659856989739,54.63718030113749,-86.58505552520386,50.49026343223757,42.565767103007126,55.508,-1.5749887000145364,0
46.48477077114898,-81.80609333038305,-23.16663838940735,53.80288110637178,-85.41887972039675,50.25748758575077,39.846471976915524,55.512,-1.5709887000145386,0
44.3044567889745,-77.92582624493676,-22.925803346122738,52.79435078351458,-80.86655834473322,47.79651051097145,36.82286985233212,55.516,-1.5669887000145408,0
41.14637900685699,-71.42155436256279,-25.546515940560976,52.13224658283057,-73.89096493216336,43.42682956849748,34.153580077102056,55.52,-1.562988700014536,0
37.56730367711889,-64.56893433475238,-29.058010471155693,52.15480964802933,-66.9946577355833,38.65708952358513,32.24239969275798,55.524,-1.5589887000145382,0
34.26314472331758,-59.521315070224794,-31.105336474554015,52.73349021567444,-62.354607659734036,35.067504073325,30.917120192195803,55.528,-1.5549887000145404,0
31.63936019052989,-56.84875804305639,-30.653373998670858,53.37339426377715,-60.3812517570174,33.24907141610362,29.621557928333953,55.532,-1.5509887000145426,0
29.75259103849293,-55.736266708448646,-28.446227715976327,53.66757395957309,-60.03579710670004,32.7453955753929,28.0527309576661,55.536,-1.5469887000145377,0
28.544218073290907,-55.30744616847103,-26.058359266285045,53.67901202761315,-60.28917685023645,32.826450349206354,26.605301834882116,55.54,-1.54298870001454,0
27.97954603026351,-55.41182305357353,-24.627319544579198,53.84126238286854,-60.96876643693249,33.1256820320153,26.06141858993789,55.544,-1.5389887000145421,0
27.9117906941246,-56.065409126471536,-24.389229380543814,54.44391030668535,-62.15446080257992,33.52399174836025,26.729406560425048,55.548,-1.5349887000145372,0
27.924584291447346,-56.50227774840731,-25.09978598453572,55.23103646046205,-63.13590175068422,33.67030373778557,27.912040993932226,55.552,-1.5309887000145395,0
27.5083181783333,-55.359658799805196,-26.53558218540365,55.573131634993054,-62.53332581498333,32.97431370148675,28.37280328537909,55.556,-1.5269887000145417,0
26.529235383464318,-52.1460486324406,-28.442110923819897,55.09071747041852,-59.76695544387213,31.265754061268936,27.469408084980813,55.56,-1.5229887000145368,0
25.506936266757254,-48.383417075969824,-30.180032870303418,54.09866733581484,-56.243331294173764,29.355490160639864,25.845687477235,55.564,-1.518988700014539,0
25.28779779500304,-46.79920814079072,-30.800612168569423,53.36907115995029,-54.59919972503047,28.640997965352305,24.901153114084984,55.568,-1.5149887000145412,0
26.294567709651993,-48.92194627200349,-29.76928037783177,53.39623235822397,-56.34814528203228,29.89012309379898,25.458448770192565,55.572,-1.5109887000145363,0
28.03512198840649,-53.346322547146514,-27.660974823506425,53.89644910443343,-60.196082339093714,32.35278750069485,26.919021116211873,55.576,-1.5069887000145386,0
29.386332506726287,-56.585094680448606,-25.964387265431824,54.0861409477606,-62.90988910959147,34.20034033923239,27.78655726175261,55.58,-1.5029887000145408,0
29.441818585791072,-55.95137677278245,-25.96901960921989,53.50146479078339,-62.12504034055982,34.01239098483624,27.08976236115143,55.584,-1.4989887000145359,0
28.152824536163024,-51.799130844100944,-27.708882015688,52.537727307258635,-58.41225831793376,31.926330681938268,25.303388652362777,55.588,-1.494988700014538,0
26.190386744703716,-46.96117817045851,-29.988208544083236,52.126016213186205,-54.542141596315986,29.339399002711588,23.8357263502562,55.592,-1.4909887000145403,0
24.229256820694065,-43.96291423264402,-31.486943734099988,52.82324950879067,-52.67937036389271,27.488024967460458,23.588697033691513,55.596,-1.4869887000145425,0
22.412323876090074,-42.80169870120084,-31.87382472046786,54.2100861085609,-52.35928914744159,26.35952279140944,24.052879793049883,55.6,-1.4829887000145376,0
20.525334783738085,-41.481542630317776,-31.862959164754116,55.22237813253904,-51.31512066277333,25.030431100594754,23.88147844097334,55.604,-1.4789887000145399,0
18.637814088323044,-38.66071761058762,-32.24356006520498,55.1295583718093,-48.285842129069444,23.028328857795035,22.394418486934658,55.608,-1.474988700014542,0
17.45450225746281,-35.58853044705413,-32.961496238527204,54.221562043255936,-44.848712114859325,21.22610632073072,20.49656817899122,55.612,-1.4709887000145372,0
17.906693733812244,-35.20927873690691,-33.24689643607766,53.530751241943044,-44.249951053906265,21.234337277012955,20.034343974122578,55.616,-1.4669887000145394,0
20.305641829092327,-39.193162959404305,-32.65513597279337,53.84124449939599,-48.2344737279686,23.802835176876844,22.133051154801127,55.62,-1.4629887000145416,0
23.87078374490313,-45.80716782948249,-31.892700108565514,54.91728856100795,-54.94548244202473,27.801673475869173,26.055604598292472,55.624,-1.4589887000145367,0
27.132285240405285,-50.80802784444779,-32.470788375062085,55.66311427358044,-60.002515760774244,30.84707194206989,29.638860524228456,55.628,-1.454988700014539,0
28.89771903128379,-50.666857228970265,-35.40245295812252,55.047206784240686,-59.85085349874889,31.07336433978329,30.90187353053391,55.632,-1.4509887000145412,0
28.958794375028884,-45.251061706235326,-40.148567340433104,52.9445340356268,-54.383231450977675,28.47674581885959,29.402786268130797,55.636,-1.4469887000145363,0
27.97908468147633,-37.66394299825567,-44.83229262062915,50.190811144936895,-46.63450972394372,24.69496782183182,26.26588169458349,55.64,-1.4429887000145385,0
26.764175013617212,-31.606215869441908,-47.56919730622803,47.90373296295551,-40.12287866845805,21.556294636405397,23.074089231149838,55.644,-1.4389887000145407,0
25.632975522584395,-28.760875415121415,-47.7482619354238,46.744601238078836,-36.41336530326512,19.785648906188538,20.759276986958575,55.648,-1.4349887000145358,0
24.42128979296707,-28.376637149159162,-46.19795889753389,46.7212958076643,-34.91221867653164,18.941863979624053,19.402365142969252,55.652,-1.430988700014538,0
22.989928652602014,-28.965546174879695,-44.22853205640971,47.53378896893865,-34.559963094267005,18.393783045457884,18.836540658557862,55.656,-1.4269887000145403,0
21.63683308557429,-30.12563971117542,-42.514561183005924,48.97385836389309,-35.37330524452133,18.203888082337134,19.198926606898176,55.66,-1.4229887000145425,0
20.95587246281116,-32.680636890213805,-40.79027328483184,50.95596598058143,-38.246807499186424,19.026586074431112,20.779293156408343,55.664,-1.4189887000145376,0
21.26350801720554,-37.19802050238488,-38.46891651578743,53.22840327838981,-43.381024688281265,21.199627664806016,23.35642274605219,55.668,-1.4149887000145398,0
22.154480042483005,-42.56876348795628,-35.4547183115379,55.17327096806626,-49.11945243689351,24.013871111444946,25.80131211439347,55.672,-1.410988700014542,0
22.643576916071943,-46.2014271049714,-32.36009809657696,56.00883462272345,-52.54128739521303,25.946377663228393,26.50402339473758,55.676,-1.4069887000145371,0
21.822749327519492,-45.77854865695159,-30.015537481038155,55.29559969670792,-51.43875917403577,25.705212979598105,24.409283308199996,55.68,-1.4029887000145393,0
19.506955834608064,-41.054631077330285,-28.834683000495048,53.3380873684887,-46.01130868603593,23.187399741431435,19.86817981933305,55.684,-1.3989887000145416,0
16.356444682073942,-34.16429880875378,-28.638561961543353,51.13908664110153,-38.87164983937416,19.554786255187725,14.6241930313081,55.688,-1.3949887000145367,0
13.406741427748806,-28.231002811190457,-29.00198792924807,49.90620141658921,-33.39745520132617,16.414611276436865,10.902891820989803,55.692,-1.390988700014539,0
11.404231315774366,-25.438040971034088,-29.667272793928774,50.42091539427908,-31.72387097242137,14.803610746318308,10.200427281012486,55.696,-1.386988700014541,0
10.446396282097103,-25.985485774591012,-30.584729951301867,52.63962400071344,-33.75820017247308,14.726382682523033,12.516012933032382,55.7,-1.3829887000145362,0
10.118687054533108,-28.45844843255492,-31.61076738414836,55.7229847393415,-37.64678473896899,15.447094336018694,16.427234425778984,55.704,-1.3789887000145384,0
9.907505147003475,-31.002930828116536,-32.292002006121365,58.447340516261164,-41.072097262895376,16.132976795767185,19.87920763810146,55.708,-1.3749887000145407,0
9.505477092967016,-32.29886678476487,-32.068936395966055,59.777729774228426,-42.40473798840772,16.29590344063992,21.193430861303327,55.712,-1.3709887000145358,0
8.81116956771762,-31.802653423914837,-30.75723809891701,59.32535033429033,-41.14210193805254,15.804299618721448,19.761173940155025,55.716,-1.366988700014538,0
7.747583482342468,-29.4865136947524,-28.817655834177916,57.47278218125215,-37.70432936820093,14.66225033171529,16.12588290182135,55.72,-1.3629887000145402,0
6.1738728657564215,-25.610309000352636,-27.084849945388175,55.111682456720665,-32.99286734745022,12.887020760874094,11.515450209839896,55.724,-1.3589887000145424,0
4.021338320455828,-20.754158959761117,-26.149672977328926,53.14262497202972,-28.022299632977447,10.600894396096097,7.161273881485858,55.728,-1.3549887000145375,0
1.509655990835744,-15.860672909106698,-25.95480634722851,52.02275441047143,-23.667289869507922,8.158265903655415,3.792092820880557,55.732,-1.3509887000145397,0
-0.8268313051013311,-11.935176837422546,-25.986124024938366,51.611718037674386,-20.434277828409776,6.063651715835549,1.507040242362104,55.736,-1.346988700014542,0
-2.4168642300743928,-9.442944805935111,-25.871175185564713,51.37024015415521,-18.262131616898838,4.659206598243647,-0.03633091392576994,55.74,-1.342988700014537,0
-3.0494424560571343,-7.903751566935551,-25.78582859588906,50.747480403254755,-16.516023463038845,3.840552299711296,-1.332986621045435,55.744,-1.3389887000145393,0
-3.0494469056244182,-6.1859846694178335,-26.242179715542903,49.508335405548564,-14.333465602960079,3.1039517430504047,-2.801210255053699,55.748,-1.3349887000145415,0
-3.0437483838643713,-3.43874603484284,-27.44722434000169,47.83661153134891,-11.234236396684294,1.9593544213862084,-4.632010797341898,55.752,-1.3309887000145366,0
-3.479026770670169,0.06005335495682657,-28.891832366562127,46.205912238836525,-7.593896329036044,0.3868540856253306,-6.688064213150327,55.756,-1.3269887000145388,0
-4.292477994690524,2.9666784786464477,-29.66960748174744,45.116858353537324,-4.517875736322449,-1.0944820088913876,-8.509093610531934,55.76,-1.322988700014541,0
-5.0361358450730815,3.9978586712345328,-29.34053542725371,44.82552367235295,-3.0167905189853697,-1.890787072424045,-9.539133479851243,55.764,-1.3189887000145362,0
-5.372173451773232,3.3045057077165825,-28.572367448153315,45.17924038864024,-2.9865952917501675,-1.9986494015817506,-9.55396050309832,55.768,-1.3149887000145384,0
-5.507682394008946,2.868339624263848,-28.887043238724097,45.655978489522234,-2.8453690097738495,-2.2804632528895263,-9.003760218389626,55.772,-1.3109887000145406,0
-6.140338244253743,5.329799447386796,-31.579881777716977,45.633219434134425,-0.35622608697273445,-3.9915688283988464,-8.895003944178875,55.776,-1.3069887000145357,0
-7.878177632964597,11.938615077651631,-36.63031409201284,44.76840179141673,5.731460171213598,-7.7987244016885215,-10.131260913615955,55.78,-1.302988700014538,0
-10.574096381204772,21.208052269371443,-42.50851378412735,43.24310441872396,14.394902345894929,-13.022677695221843,-12.74077117343633,55.784,-1.2989887000145401,0
-13.165549088708774,29.5035930598146,-47.09789190860357,41.65972068492436,22.53719601674149,-17.780461199141467,-15.656607565026606,55.788,-1.2949887000145424,0
-14.25951841759353,33.34528529502675,-49.066256856665284,40.624976543663465,26.778278951117713,-20.06662791276359,-17.356137602785473,55.792,-1.2909887000145375,0
-13.098046531616035,31.77768444764561,-48.667822363881214,40.33087876155171,25.65953261055171,-19.06261093119337,-16.939615993058375,55.796,-1.2869887000145397,0
-10.175589759012176,26.987691344048752,-47.41856549837949,40.4801857753362,20.626429512544128,-15.714285919973058,-14.785865454564288,55.8,-1.282988700014542,0
-6.992972414430677,22.6735815206967,-46.95558197965647,40.61630767204085,15.010894569631576,-12.119993025394416,-12.232236342887543,55.804,-1.278988700014537,0
-5.090471810012191,21.44705905457914,-47.960589143033346,40.54634650939449,11.77953975945818,-10.162463398251697,-10.559420972134541,55.808,-1.2749887000145392,0
-5.076553504783771,23.289320414631177,-49.886426891447584,40.45499989574584,11.763704458425192,-10.387797479243986,-10.157246893326834,55.812,-1.2709887000145415,0
-6.370688152190183,26.137138505801,-51.55691846761611,40.61449006859274,13.620224856762423,-11.911623878843526,-10.532622932506296,55.816,-1.2669887000145366,0
-7.794379842261573,27.867296962428952,-52.08143810786794,41.01361825788527,15.298273752877819,-13.301245182261534,-11.002125840800984,55.82,-1.2629887000145388,0
-8.468845194625116,27.866997335493746,-51.396187073436145,41.32558389525169,15.611503974447404,-13.641606356799473,-11.297446580332053,55.824,-1.258988700014541,0
-8.288565234867432,26.95010170011152,-50.131946891139776,41.281498927056894,14.649186910776324,-12.954089979833777,-11.506185432103727,55.828,-1.254988700014536,0
-7.67952074556204,26.010043777609933,-49.044983907930714,41.05907861768178,12.990592734349349,-11.788383981141333,-11.54682649500694,55.832,-1.2509887000145383,0
-6.997302671245938,24.93334843688311,-48.51835748532334,41.22310145128995,10.795525847833126,-10.53424316896953,-10.902072410467333,55.836,-1.2469887000145405,0
-6.181637922077778,22.88899237894086,-48.49332528905333,42.18619502537891,7.790426772893966,-9.152833560812734,-9.037817405269855,55.84,-1.2429887000145357,0
-4.95224435313847,19.619075946760578,-48.79829294900393,43.683370281686834,4.087999552113297,-7.516317206736412,-6.123591271681849,55.844,-1.2389887000145379,0
-3.264715525033962,16.28520604229119,-49.525447223996544,44.82112965515764,0.8099171109385659,-5.899215614975167,-3.2268744443816915,55.848,-1.23498870001454,0
-1.505385277974571,14.835904578264302,-51.08630629025121,44.7537280599587,-0.3787241268015635,-5.014726391732442,-1.604490551463178,55.852,-1.2309887000145423,0
-0.2042121604242523,16.340408120596383,-53.84922658126609,43.42474704040087,1.3934118088787224,-5.461861832363996,-1.6432663958216107,55.856,-1.2269887000145374,0
0.443037732492818,19.818016128329898,-57.61735514930052,41.700341239839844,5.175544016995383,-7.069057946429673,-2.450526021927708,55.86,-1.2229887000145396,0
0.7505918449538584,22.715203634995373,-61.38431661139366,40.74620545584963,8.508199142091991,-8.78158554437553,-2.5542979221216213,55.864,-1.2189887000145418,0
1.2255219603120369,22.711005222101157,-63.66134688111603,41.17457878780379,8.974135027768199,-9.287339312468305,-1.1365548044008231,55.868,-1.214988700014537,0
2.0570145085537614,19.362579799532888,-63.272786559913,42.674439288564734,5.812618254181386,-7.928066251480992,1.2942009605612668,55.872,-1.2109887000145392,0
2.9021636438981404,14.287328462705071,-60.12878251583304,44.378797593262526,0.3708085396473605,-5.181358769939221,3.3710430462592016,55.876,-1.2069887000145414,0
3.174999663007242,9.857103150516556,-55.4041543158482,45.575617493228044,-4.885575510988925,-2.3348871344872184,4.016896654572546,55.88,-1.2029887000145365,0
2.5773399057948647,7.543476198180697,-50.901442799288745,46.137407704560026,-8.000820443295778,-0.6007499483230169,3.2447893823719896,55.884,-1.1989887000145387,0
1.4002367099644784,7.1485118245936565,-47.96047700339393,46.390532138472295,-8.639614415939967,-0.3223321299319757,1.9831428762354824,55.888,-1.194988700014541,0
0.34140369098377077,7.295025819512352,-46.671564694984355,46.67528711065042,-8.025141735048937,-0.8278935475323057,1.2128833564190842,55.892,-1.190988700014536,0
-0.0025269057783924675,6.608839358035764,-45.99872978089944,47.050176415214644,-7.888770925765651,-1.0065698053082615,1.2375816445013879,55.896,-1.1869887000145383,0
0.4337319805699689,4.710495656316049,-44.75662073370413,47.34579721124989,-9.187926324871526,-0.1831863662854239,1.637708576725213,55.9,-1.1829887000145405,0
1.1430412244742345,2.4488471218984875,-42.686342962408666,47.40138577679904,-11.41106097277464,1.3325443776715544,1.7715854343400181,55.904,-1.1789887000145356,0
1.4075373005908907,1.3200461643712582,-40.731083958199655,47.20303495717242,-12.921701145760458,2.438253023845695,1.2839136579798809,55.908,-1.1749887000145378,0
0.8125200701169757,2.413468205609775,-40.22107388340262,46.83412897982362,-12.182012926588936,2.087993754562146,0.2549757998790579,55.912,-1.17098870001454,0
-0.4215147282773748,5.478555775681354,-41.603688182252384,46.372201269747244,-9.08444778258927,0.21459014762407158,-0.9556964999336218,55.916,-1.1669887000145422,0
-1.5186459245588528,8.77453808797175,-43.82089557745133,45.87383771878687,-5.377006129224166,-2.006473907713843,-1.925354267810385,55.92,-1.1629887000145374,0
-1.6370750435758408,10.043329874558298,-44.97707041162783,45.4230703854925,-3.633936736174913,-2.8877871434294913,-2.330530925242699,55.924,-1.1589887000145396,0
-0.49571829211132523,8.174628098452155,-43.86246182977401,45.11721394934127,-5.295505065706111,-1.5354123835613547,-2.102744476640613,55.928,-1.1549887000145418,0
1.298393229355641,4.375530952035551,-41.093401695232934,44.95700125334384,-9.234765429226112,1.2596552708900275,-1.5624135811660063,55.932,-1.150988700014537,0
2.546067481998591,1.6972794613569233,-38.83453637389665,44.76821550719491,-12.195091815258795,3.3734879650389775,-1.3554222264339504,55.936,-1.1469887000145391,0
2.2842254290184925,2.906553182039825,-39.18797851051413,44.293565662594204,-11.092193819695408,2.8644991278909457,-2.06867107133391,55.94,-1.1429887000145413,0
0.5877588422265464,8.166751064222986,-42.46916295920389,43.41763945488335,-5.546171640845803,-0.4333096910741963,-3.7235050702089447,55.944,-1.1389887000145364,0
-1.3227391837189901,14.47820001354313,-46.77275266649552,42.31528193805945,1.4573569215250386,-4.551713308882858,-5.603633714030189,55.948,-1.1349887000145387,0
-1.8795048855728922,17.635630431888515,-49.26414425926714,41.34875240154677,5.566307141352119,-6.706645913299829,-6.7003949166474985,55.952,-1.1309887000145409,0
-0.3461783476189409,15.400851423967985,-48.27187697181663,40.767535251065716,4.351054750205962,-5.386181225871651,-6.515204879932423,55.956,-1.126988700014536,0
2.551127743381672,9.406370509643843,-44.59859000798401,40.46484652189774,-0.6853799274497531,-1.587817520236368,-5.550557319253099,55.96,-1.1229887000145382,0
5.1107521126535,4.148380810392678,-41.04184025879522,40.01763979773709,-5.064477452487506,1.8274778044658029,-4.997932813966317,55.964,-1.1189887000145404,0
5.936330923075413,3.7192047386461864,-40.46664557121249,39.00339432075702,-4.615481387047436,2.2239276629776317,-5.800730687196318,55.968,-1.1149887000145355,0
4.999489635403995,8.78287173917228,-43.84866495110644,37.355963563876905,1.433038877045403,-0.8816726180236951,-7.841026246368436,55.972,-1.1109887000145378,0
3.61656149952952,16.139221810546278,-49.70108534434224,35.48717572367573,9.932227924956369,-5.539354913572503,-9.934746700793164,55.976,-1.10698870001454,0
3.363776520080817,21.16693360424951,-55.24445161438359,34.075820636440845,16.200644588103312,-8.904327837060293,-10.658395897430571,55.98,-1.1029887000145422,0
4.837006408713131,21.181903335138813,-58.390421866144294,33.66519063831247,17.393189107737072,-9.337396871240792,-9.349470752516394,55.984,-1.0989887000145373,0
7.266321506052174,17.117961014658388,-59.04794613658693,34.34254668412718,14.253074092360759,-7.426515958040532,-6.505441202571002,55.988,-1.0949887000145395,0
9.241056382714728,12.371966228735626,-58.82557391075739,35.71857792637332,10.043800262732702,-5.226097130888495,-3.3237297589104733,55.992,-1.0909887000145417,0
9.865123221673999,9.91878926831644,-59.456175677838935,37.221871544342335,7.719529767253031,-4.459303692813841,-0.8098344309330131,55.996,-1.0869887000145368,0
9.362369158298142,10.062530877173296,-61.25209685326147,38.500259910357215,7.68599812877419,-5.193584943223911,0.8345237218825409,56.0,-1.082988700014539,0
8.70958010073011,10.514997820645103,-62.8436944729444,39.6294032949504,7.856520247080906,-5.9984132554335075,2.1316062649713987,56.004,-1.0789887000145413,0
8.74224804077242,8.5322442561321,-62.390934478494174,40.95683654150316,5.742644743376484,-5.309242108009094,3.7262030047191343,56.008,-1.0749887000145364,0
9.567868312597602,3.230448637377769,-59.23217927699014,42.69361214086715,0.6933610858297728,-2.7586852302275,5.805574330545354,56.012,-1.0709887000145386,0
10.730500440454867,-3.7879534717253693,-54.56610645582979,44.594744057317044,-5.579888119399305,0.6232838274619571,7.985419721720626,56.016,-1.0669887000145408,0
11.825730374216173,-9.841444652145357,-50.58856357006678,46.0316562189636,-10.485397766698812,3.381847581368184,9.676171814363027,56.02,-1.062988700014536,0
12.886701689962262,-13.258253462188668,-48.83615262027876,46.444432420925224,-12.61756540228948,4.816946987147596,10.56389038672184,56.024,-1.0589887000145382,0
14.175950391459889,-14.363350684091541,-49.156236316434374,45.81747518001541,-12.603810954614831,5.324817162528881,10.805155221136582,56.028,-1.0549887000145404,0
15.671829198637019,-14.707880940119642,-50.12502020543759,44.764288370726355,-12.153877699250385,5.7207042101849055,10.82995706525935,56.032,-1.0509887000145426,0
16.866533830023734,-15.48862354649177,-50.41902559204058,44.118147181522744,-12.389552179917992,6.325847861979745,10.986672444924134,56.036,-1.0469887000145377,0
17.16845358905625,-16.709016574946116,-49.835678945318215,44.347146203738376,-13.078885245625775,6.753288737369822,11.354692235725674,56.04,-1.04298870001454,0
16.550630922965468,-17.7349635199572,-49.101630980635825,45.265262860818034,-13.370238272454879,6.550064475717731,11.84087451354667,56.044,-1.0389887000145421,0
15.768094018776555,-18.439388917257034,-48.835259900017434,46.253176841687,-13.076243759688884,5.941349194223548,12.388272522276262,56.048,-1.0349887000145372,0
15.826226100820314,-19.579520502957944,-48.81359225682164,46.76996506829392,-13.04894358379114,5.804987405317787,13.040877769138708,56.052,-1.0309887000145395,0
17.103997382382115,-21.950411021692677,-48.272783507821536,46.720770447603435,-14.217525924059386,6.818085359498305,13.797867264089755,56.056,-1.0269887000145417,0
18.927326050551162,-25.25631970500255,-46.8255003022412,46.420490079390206,-16.35411721854136,8.638869965587151,14.449251130256597,56.06,-1.0229887000145368,0
20.04119631046581,-28.04699943874239,-44.92832747816103,46.265433629760054,-18.011339088275015,10.045649543349892,14.634386521602694,56.064,-1.018988700014539,0
19.629589109995845,-28.99466034021264,-43.35914440584323,46.44115484647679,-17.88766550624684,10.030298503045573,14.140427792784491,56.068,-1.0149887000145412,0
18.012645168146456,-28.315712940163625,-42.28711447913256,46.88823884430801,-16.317815220011692,8.837843529393847,13.181915097459571,56.072,-1.0109887000145363,0
16.40819931729896,-27.83334896541168,-41.008677373901584,47.47074030580087,-15.30231000113266,7.8984302667731345,12.366966450572967,56.076,-1.0069887000145386,0
15.96243032667818,-29.44357395078727,-38.725979272536705,48.12729910466536,-16.861039745359722,8.622024086290923,12.318839451049236,56.08,-1.0029887000145408,0
16.888666832268697,-33.356187948487175,-35.59100015540438,48.86106832062892,-21.180012944679678,11.137359145322623,13.240106750350987,56.084,-0.9989887000145359,0
18.42704894227799,-37.78553883776856,-32.878150272108776,49.62078217254224,-26.300444724875206,14.144329553315965,14.771973166616377,56.088,-0.9949887000145381,0
19.581799801344765,-40.41017599025472,-32.00226416787637,50.23264802249369,-29.65638492222868,16.004080205223477,16.250297051297846,56.092,-0.9909887000145403,0
19.919370738665684,-40.244156291960785,-33.28941910672427,50.47700463810111,-30.03371830959184,16.037369779928472,17.133548551581637,56.096,-0.9869887000145425,0
19.734066471582246,-38.23545206099017,-35.6820980281742,50.25703399013363,-28.21960321527487,14.870336606783175,17.275716235940198,56.1,-0.9829887000145376,0
19.54487358013685,-36.21227877768138,-37.62825272077458,49.7213294357773,-25.97722347320594,13.650826904911284,16.900725050836485,56.104,-0.9789887000145399,0
19.51683728409399,-35.36383752225642,-38.24831547152498,49.23355074214095,-24.562395911661305,13.033017873978972,16.391143005228788,56.108,-0.9749887000145421,0
19.399034156661894,-35.694351300420735,-37.6936280927404,49.184039070639564,-24.20093917588713,12.91849832146711,16.087347020279704,56.112,-0.9709887000145372,0
18.980478515077568,-36.68889532871075,-36.54102931787136,49.73866819888563,-24.697779062195842,13.028684193314374,16.17987280150041,56.116,-0.9669887000145394,0
18.511088959390477,-38.15289647929711,-35.06664016116826,50.67548664892243,-26.109154350176595,13.488331634950875,16.653783747378203,56.12,-0.9629887000145416,0
18.586023770936226,-40.20107684239031,-33.23580941952549,51.443082427994796,-28.537065577461618,14.68026353256859,17.26458210787781,56.124,-0.9589887000145367,0
19.583631828207555,-42.56020093219289,-31.29999354881994,51.46509416435453,-31.373338825064593,16.559122454658333,17.62568485885702,56.128,-0.954988700014539,0
21.253147272943412,-44.28838986804749,-30.108891091094584,50.54057552785414,-33.196041531151224,18.326433418663832,17.473166270831914,56.132,-0.9509887000145412,0
22.926041092977396,-44.576700983252856,-30.535229384059775,49.06395680966002,-32.89760301457597,19.03745649472024,16.98207898453094,56.136,-0.9469887000145363,0
24.18288951509844,-43.939106338150125,-32.46933571207529,47.851042082010885,-31.111295300262938,18.6510971916999,16.83470856167912,56.14,-0.9429887000145385,0
25.305200262431992,-44.377232444138365,-34.48304765823676,47.627358472072096,-30.320098077207575,18.40330146176179,17.84451798331681,56.144,-0.9389887000145407,0
27.016938667373008,-47.97066221033225,-34.71613850050626,48.52877503688525,-33.12088838876631,19.93775974938326,20.324215645963307,56.148,-0.9349887000145358,0
29.725748490866536,-55.00709704378977,-32.31254209283582,50.013930200831275,-40.00799323702717,23.873848507540508,23.71410517441442,56.152,-0.930988700014538,0
33.00458568247976,-63.46700005241333,-28.101188193785227,51.2933109580143,-48.763559980048356,29.15559699117576,26.87825459457707,56.156,-0.9269887000145403,0
35.85671073785272,-70.54026790209358,-23.869740717087772,51.950140290947544,-56.19105899943053,33.866208381155076,28.928008208656497,56.16,-0.9229887000145425,0
37.55049627156479,-74.89700628933566,-20.8942671563794,52.237159432034886,-60.707849632635366,36.8048036265465,29.906663748204245,56.164,-0.9189887000145376,0
38.23764235687342,-77.60961810620232,-19.065422175216014,52.78287013554314,-63.411965630138916,38.369277232438264,30.697216186702384,56.168,-0.9149887000145398,0
38.75723260429608,-80.82879599795424,-17.345762600804594,53.945867731718494,-66.62401789632649,39.93446396486164,32.16101219420911,56.172,-0.910988700014542,0
39.80793164444973,-85.44273716365959,-15.033089624056702,55.380077293808206,-71.29596797941488,42.34470236956021,34.23908345931298,56.176,-0.9069887000145371,0
41.2822898000877,-89.94445907407881,-12.613449336476478,56.21522886656695,-75.77214606786222,44.970803285745895,35.861732526016944,56.18,-0.9029887000145393,0
42.40245888929029,-91.62547823791472,-11.455115077082906,55.73577182309325,-77.12571962064013,46.227306091266115,35.84077613198807,56.184,-0.8989887000145416,0
42.527096684147565,-89.0600143382933,-12.675701522095205,54.00661959515314,-73.88764285413815,45.067096680033586,34.02254575519233,56.188,-0.8949887000145367,0
41.85950812559086,-83.66806868696396,-16.172905031638166,51.92624567976744,-67.70709563160281,42.08472144058159,31.677594104265,56.192,-0.8909887000145389,0
41.38072486060781,-78.98446756170493,-20.549578032084558,50.65676399568991,-62.463900371851935,39.25078486767822,30.70967224166546,56.196,-0.8869887000145411,0
42.047013811363946,-78.24624473516032,-23.887751176398737,50.87792388515489,-61.58266671730036,38.52112207325335,32.270602859087205,56.2,-0.8829887000145362,0
43.94356935413449,-82.2177515145158,-24.77619956768585,52.41959453214104,-65.71479693645648,40.46486593774865,35.88071819463392,56.204,-0.8789887000145384,0
46.0957233537421,-88.77964298047809,-23.00326444329299,54.485093690982644,-72.43866465537467,43.911751863412896,39.72900317100807,56.208,-0.8749887000145407,0
47.059458776630066,-94.30889035485947,-19.649563820836253,56.21166023895571,-77.90064314474955,46.7255208663436,41.86245743851582,56.212,-0.8709887000145358,0
45.810348926548805,-95.69191426642979,-16.59094541293408,57.121476871049886,-79.01476548267347,47.037761435138734,41.32803792929988,56.216,-0.866988700014538,0
42.31873229970785,-91.76305219895717,-15.583736271822804,57.21013892382797,-74.87277009649533,44.17746803087894,38.513219312860514,56.22,-0.8629887000145402,0
37.533496864121624,-83.68432771846327,-17.290575917986487,56.76325853055612,-66.92818232060348,38.935922361840824,34.670408200534624,56.224,-0.8589887000145424,0
32.90781229171651,-74.4067872909867,-20.78574743809627,56.15822216236074,-58.25874317138071,33.203735408208885,31.181508038177544,56.228,-0.8549887000145375,0
29.767024265104094,-67.50122669371176,-23.973987232259702,55.791436946573526,-52.32413918190488,29.165891000231685,29.07500089596704,56.232,-0.8509887000145397,0
28.761614557307087,-65.6483913188688,-24.81254328397389,56.054882340166614,-51.5213270233649,28.30442649934083,28.86133822939306,56.236,-0.846988700014542,0
29.57349132523383,-69.30810867139029,-22.572276083578885,57.222291556719725,-55.98866521772607,30.612486847503718,30.46078024323793,56.24,-0.8429887000145371,0
31.025494055971954,-76.33772883796577,-18.227172451634345,59.251655038002895,-63.36010945842558,34.51400671123601,33.13385494281482,56.244,-0.8389887000145393,0
31.64850479036824,-83.04739113070448,-13.687230349842167,61.68463011474073,-69.91772227988086,37.703106386539474,35.616102468779054,56.248,-0.8349887000145415,0
30.492703963661256,-86.25463328718635,-10.513101812448296,63.810323025629316,-72.67287564113782,38.48682796802856,36.65075578345337,56.252,-0.8309887000145366,0
27.699730784115467,-85.03413384118454,-9.135715414983272,65.04668269391816,-71.03785526575714,36.73612104331586,35.72517000057552,56.256,-0.8269887000145388,0
24.398202371255877,-80.94393080631383,-9.077873433381571,65.28105899958696,-66.87490146449574,33.7527025577407,33.46474177560759,56.26,-0.822988700014541,0
21.938328455847476,-76.64877635267672,-9.742013452690355,64.91527146347295,-62.931111382832256,31.190645010743648,31.277656258135252,56.264,-0.8189887000145362,0
21.0137753859064,-74.11202858024258,-10.893957161491477,64.58693275090951,-60.96616786563227,29.932492402704444,30.438953067845976,56.268,-0.8149887000145384,0
21.33983834780939,-73.756668430456,-12.431528037875937,64.78384300124124,-61.0465971796048,29.802791626682826,31.308320672203305,56.272,-0.8109887000145406,0
22.10357147028207,-75.00506709587137,-13.865140768391033,65.6193534854873,-62.34032255940614,30.20631078454609,33.28129468335312,56.276,-0.8069887000145357,0
22.74830706380071,-77.35401404374322,-14.267982466128817,66.87080015041782,-64.38023442429053,30.94756314075447,35.43556057918958,56.28,-0.8029887000145379,0
23.390541349179905,-80.80654559926619,-12.935491657695847,68.17245633803871,-67.46676533636335,32.39926755715352,37.2465373489532,56.284,-0.7989887000145401,0
24.534211184050754,-85.3153242063186,-10.176136025275309,69.18566469595557,-71.88109262550853,34.89485288923508,38.75782408786105,56.288,-0.7949887000145424,0
26.402424826308398,-90.00326737522893,-7.398647716791551,69.66901990335799,-76.85382588640225,38.01664879219453,40.16764745656184,56.292,-0.7909887000145375,0
28.543650271590142,-93.19770129324864,-6.251538897816367,69.5036010196804,-80.52279672391359,40.56923928086402,41.355546342844036,56.296,-0.7869887000145397,0
30.091415750847712,-93.49499655164738,-7.443395570922842,68.7470832589559,-81.15420397956265,41.372634855879205,41.88146223645004,56.3,-0.7829887000145419,0
30.44175044760427,-90.9842247379974,-10.19340547567385,67.69031177174271,-78.63174832751625,40.21830744489594,41.4590088769446,56.304,-0.778988700014537,0
29.733623886188376,-87.46422055630978,-12.747149708841398,66.80266105051733,-74.84456123858769,38.138196766273545,40.38144980075962,56.308,-0.7749887000145392,0
28.705561544823745,-85.28847713097676,-13.538211460901174,66.50448942855317,-72.47945402369835,36.70312240737947,39.392969234819866,56.312,-0.7709887000145415,0
28.063112260627868,-85.66277883500453,-12.128462798301712,66.87777921944733,-73.07780530664596,36.87964082330285,39.04851463657414,56.316,-0.7669887000145366,0
27.914971863756982,-87.75810388594302,-9.323249811148031,67.55493940735994,-75.88949042517322,38.34236163035381,39.158571220793526,56.32,-0.7629887000145388,0
27.758545000790306,-89.40840270571744,-6.508998631858,67.94875972950098,-78.48021720045327,39.779518845379435,38.91079496235798,56.324,-0.758988700014541,0
27.00630101219809,-88.89769934212383,-4.751121776613813,67.71408616065277,-78.67419850816398,39.9511693021792,37.651463151871546,56.328,-0.7549887000145361,0
25.574872491272306,-86.41063311026505,-4.23610218058863,67.07994476952885,-76.31577945397126,38.67067578982374,35.637021694200065,56.332,-0.7509887000145383,0
24.0066877478959,-83.89971088129249,-4.342206576120879,66.71687579083991,-73.3927087680842,36.925746585297524,33.985316101464235,56.336,-0.7469887000145405,0
22.999095589572477,-83.35648034497534,-4.230040200373696,67.1613539188083,-72.31436776317997,36.01404324245221,33.726395557696,56.34,-0.7429887000145357,0
22.740363633731633,-84.85715860495036,-3.54482854142182,68.24726244054335,-73.68415785256389,36.36792628478082,34.73059263988024,56.344,-0.7389887000145379,0
22.653344618575133,-86.13615553917506,-2.7338620092639454,69.09316290841006,-75.49736434535701,37.06390191439744,35.55697245241343,56.348,-0.7349887000145401,0
21.83337901409693,-84.32869019131002,-2.6973027037823534,68.78385839457742,-74.68177149754153,36.530226970088776,34.56030001387079,56.352,-0.7309887000145423,0
19.866313773879213,-78.63748481801943,-3.9739663089966375,67.24436405534597,-69.90247321026185,33.967766945269894,31.435479562782852,56.356,-0.7269887000145374,0
17.323709416044856,-71.58931823005786,-6.114475106335874,65.50838055113881,-63.208635549464866,30.277017250675694,27.803321667999267,56.36,-0.7229887000145396,0
15.429017033104568,-67.4269589065796,-7.871814725238853,64.99762998856806,-58.77683072275601,27.54655566027523,26.102401672626602,56.364,-0.7189887000145418,0
15.073804771732249,-68.59675728003857,-8.199548424417502,66.29633367317912,-59.44311408069233,27.34598362718663,27.523297713050408,56.368,-0.714988700014537,0
15.982677141820744,-73.24897395786648,-7.251484010016024,68.47066818474727,-63.91354853268048,29.228058636381036,30.732602537613964,56.372,-0.7109887000145392,0
16.800769246559593,-76.21604680383938,-6.402678936729835,69.6457766417615,-67.35251502884026,30.86600922314463,32.658685657943735,56.376,-0.7069887000145414,0
16.139787520567463,-73.08595916236166,-7.0937466353468155,68.49103508316588,-65.26272309987506,29.920723184986695,30.890883108863534,56.38,-0.7029887000145365,0
13.754794197256047,-64.07841586647646,-9.439306783243268,65.38740901131439,-57.47998056086424,26.12102605540728,25.73447394660627,56.384,-0.6989887000145387,0
10.820458379435841,-54.22024664479081,-11.932771941766259,62.21336862630235,-48.638129752452855,21.66277439329973,20.09454693997201,56.388,-0.6949887000145409,0
8.996723531706957,-49.34493504279706,-12.691896361585538,60.8455171297368,-44.38177268402454,19.409885749278352,17.166477677685027,56.392,-0.690988700014536,0
9.042188397826397,-51.19889231608265,-11.229391979530847,61.62727310689646,-46.4794276412742,20.384701520470948,17.853548911693878,56.396,-0.6869887000145383,0
10.184898275636147,-55.94936628820504,-9.101152092565664,63.13503958584621,-51.207541320635514,22.802937635175706,20.13518420474817,56.4,-0.6829887000145405,0
10.828297049779914,-57.50055177830883,-8.71359676638678,63.442031191208585,-52.5790246722269,23.602143950490174,20.92070102544383,56.404,-0.6789887000145356,0
9.978454794549084,-52.72256075998041,-11.288142303642449,61.75334936831686,-47.5952080536325,21.141141913080407,18.732965041309004,56.408,-0.6749887000145378,0
8.114197756627437,-43.956543678766664,-15.842420863461903,58.98479817628871,-38.801097178082884,16.629841749185672,14.871224038209675,56.412,-0.67098870001454,0
6.7261042398769435,-36.676441304313954,-20.142704723539136,56.85578984235145,-31.896380785958776,12.999151784964223,12.134480946619286,56.416,-0.6669887000145422,0
6.978028264143553,-34.64429141761298,-22.712845963909178,56.41216182474006,-30.730008262471795,12.302747235387193,12.39420831972317,56.42,-0.6629887000145374,0
8.746069067632684,-37.08317384584257,-23.965956314153114,57.32547002471531,-34.34761881217231,14.093208674115385,15.232001205704659,56.424,-0.6589887000145396,0
10.899192402448833,-40.26155066613158,-25.397597689703105,58.47592315970728,-38.645480142722064,16.225565010392664,18.703947926007977,56.428,-0.6549887000145418,0
12.47623683120722,-41.563817673338775,-27.720202553653223,59.0894666801921,-40.70163553454694,17.167731166296736,21.252221083842894,56.432,-0.6509887000145369,0
13.557360686459266,-41.84549342659393,-29.898817658784775,59.27498574432308,-41.38259186874499,17.458895124054465,22.835661399286924,56.436,-0.6469887000145391,0
14.9602607299093,-43.80673550587553,-30.15241552758812,59.54230087704713,-43.72853728871592,18.862791186288653,24.32233552893453,56.44,-0.6429887000145413,0
17.087446382356557,-48.24852480588993,-27.9698002032081,59.95895492539083,-48.939449677890295,22.110383051251592,26.00099032798935,56.444,-0.6389887000145364,0
19.131250307906964,-52.24491610998133,-25.071917514360152,59.917996968412105,-54.206201946318096,25.584055129235157,26.889733165105326,56.448,-0.6349887000145387,0
19.529417703175426,-51.33107811956711,-24.198472532036515,58.77274469783674,-54.781262366836145,26.408780877797742,25.599869739629828,56.452,-0.6309887000145409,0
17.345982133838277,-43.74536069080356,-26.721351012088753,56.646382720902466,-48.44347569445284,23.047712450202837,21.87011009240158,56.456,-0.626988700014536,0
13.309412320951918,-32.630681446019366,-31.30486588048463,54.5374530547714,-38.0806801232987,16.9702053648525,17.19915670922687,56.46,-0.6229887000145382,0
9.49074559437767,-23.972188216650256,-34.92170208994183,53.57515333164485,-29.83351190169832,11.75809117135058,13.903412110917303,56.464,-0.6189887000145404,0
7.817872736298837,-22.030057511603605,-35.35267498647061,54.13490675407956,-28.367896589054677,10.361620314881938,13.43622928186861,56.468,-0.6149887000145355,0
8.65895111652729,-26.25126373423303,-32.93959869621582,55.62647226876423,-33.392083056441564,12.871746814917746,15.425775286681189,56.472,-0.6109887000145378,0
10.626792766387416,-32.1227822102466,-30.094657921891987,57.06413125807846,-40.23112824976246,16.6383837958137,18.119260561621502,56.476,-0.60698870001454,0
11.685986291830154,-34.84907977790288,-29.139140617679796,57.79589533947903,-43.60104302424775,18.45371785523065,19.653663933290613,56.48,-0.6029887000145422,0
10.596973136820859,-32.56095031362019,-30.465938286910383,57.74321904930716,-41.219417508445595,16.851504047094775,19.054609875753403,56.484,-0.5989887000145373,0
7.599419497071647,-26.75497492306525,-32.53652392117656,57.11814837493205,-34.606734861625256,12.763672174412195,16.416993659451226,56.488,-0.5949887000145395,0
3.9997705642485477,-20.40688609984313,-33.44779113557513,56.11084375605177,-27.208617662115564,8.394254806677475,12.558425770556033,56.492,-0.5909887000145417,0
1.1928804888862454,-15.886614005438362,-32.491885773556284,54.92173605704029,-21.966785592807756,5.572576705729432,8.658092120146472,56.496,-0.5869887000145368,0
-0.10970045305925767,-14.154457917828312,-30.416138124338435,53.96488510294929,-20.12606805498341,4.874584546138878,5.966894901121292,56.5,-0.5829887000145391,0
-0.07207709859155996,-14.990891909755325,-28.47712474029903,53.78796327980657,-21.358462430598877,5.774697696639914,5.335895202798361,56.504,-0.5789887000145413,0
0.5225349249696394,-17.258538281064528,-27.416590897055674,54.59736783497435,-24.253093955375522,7.222593379391108,6.585726994160656,56.508,-0.5749887000145364,0
0.6881936291705723,-18.94736583933089,-27.266326159217297,55.84668552858018,-26.666427501865986,8.071717108253775,8.27352323440967,56.512,-0.5709887000145386,0
-0.3418080285004364,-17.68160033227491,-27.860613782950118,56.44315767608296,-26.30987720287421,7.351936731851268,8.39880493866547,56.516,-0.5669887000145408,0
-2.7495877115917757,-12.071308725861735,-29.25966017980461,55.55643113627283,-21.904951078962466,4.634907958047815,5.7941686018999885,56.52,-0.5629887000145359,0
-5.971466581136494,-3.04890047260361,-31.58141946439837,53.347471750833776,-14.279482425928029,0.41401693092923864,1.1197802623035347,56.524,-0.5589887000145382,0
-8.935192819077505,6.244075403506951,-34.52918621817431,50.909627510034476,-6.241880638672621,-3.9441462694448335,-3.503296968172126,56.528,-0.5549887000145404,0
-10.6690592925336,12.378707224256097,-37.265411733624816,49.42106579793631,-0.9051541434299966,-6.910574792450033,-6.049573060153908,56.532,-0.5509887000145426,0
-10.898513039407003,13.942619550341638,-38.870113250226744,49.25995017698629,0.35261843666551107,-7.739958293982171,-6.046603580377478,56.536,-0.5469887000145377,0
-10.153475778055348,12.236570675991274,-38.96182701463778,49.865340701815576,-1.4335376351008167,-6.865190950207765,-4.687879999805106,56.54,-0.5429887000145399,0
-9.281148993043429,9.797875260139568,-37.89224771267447,50.39784305863061,-4.0433337871740935,-5.389437420137482,-3.5895504057406615,56.544,-0.5389887000145421,0
-8.788784706371132,8.231894182682653,-36.38876481028127,50.49983031781157,-5.965066806086385,-4.1690989802233895,-3.4200091975319906,56.548,-0.5349887000145372,0
-8.59215561842339,7.395342695766855,-35.056149804207074,50.42721917056138,-7.171008500812,-3.3456833899008487,-3.6575645529848853,56.552,-0.5309887000145395,0
-8.334341839633383,6.463878681629366,-34.18257032933702,50.52103137611026,-8.263124641111634,-2.6660797839272954,-3.538793463730252,56.556,-0.5269887000145417,0
-7.87401089987478,5.437101660168704,-33.86287652564415,50.66905109750249,-9.208917857068146,-2.085122003122261,-3.0752254719618044,56.56,-0.5229887000145368,0
-7.412293971330661,5.291142045174867,-34.10568933240483,50.37661035749665,-9.218869452199556,-1.894846040489473,-3.0360536062469543,56.564,-0.518988700014539,0
-7.1656035197004915,6.6220428967025615,-34.727205824047466,49.3779440239871,-7.90942376384929,-2.2397347729259756,-3.9580190401664166,56.568,-0.5149887000145412,0
-7.014162769067795,8.42644245128887,-35.24073187950714,48.11087445696123,-6.316550637271108,-2.655903427926976,-5.309968194477065,56.572,-0.5109887000145363,0
-6.581285334220989,8.630523895585156,-35.076843197278215,47.488610634636444,-6.359071545643831,-2.31179318360591,-5.790141269472609,56.576,-0.5069887000145386,0
-5.692961166341888,6.083258494318714,-34.10010362385798,48.119541881536136,-9.032672474723709,-0.8415250219784982,-4.535538088952761,56.58,-0.5029887000145408,0
-4.697372908633927,2.009068015394257,-32.93279599326456,49.70956985482154,-13.137885868445341,1.0882626726010767,-2.0388457724730107,56.584,-0.4989887000145359,0
-4.23567776288557,-0.7121779717199749,-32.63641487582379,51.23167520846374,-15.987472984228887,2.173138629408754,0.16692975678574862,56.588,-0.4949887000145381,0
-4.654444433861583,0.10423749623448568,-33.901012623568235,51.714104761707155,-15.56621705553975,1.5453450811036427,0.7579867739243359,56.592,-0.4909887000145403,0
-5.679797044714682,4.224130846846832,-36.45120540476485,50.918874392573905,-12.077907412311085,-0.5147478571481652,-0.4193475204819289,56.596,-0.48698870001454253,0
-6.729943731716725,9.559078291025282,-39.253319208532204,49.327780564201475,-7.390156291330959,-2.9551937905947243,-2.5582458330521054,56.6,-0.48298870001453764,0
-7.553951549114359,14.33700203177617,-41.349870544543776,47.55616167304402,-3.0476813256317774,-5.020787803515584,-4.920872482014657,56.604,-0.47898870001453986,0
-8.494596894000185,18.551847914783725,-42.5175197513921,45.85257908141526,0.990542254051657,-6.87138840563635,-7.511464199221996,56.608,-0.4749887000145421,0
-10.040115819584635,23.18818542626621,-43.13532775765104,44.17847702378146,5.5468723582079456,-9.077156025840315,-10.66093520517957,56.612,-0.4709887000145372,0
-12.099942471131072,28.176345083063413,-43.503560460387604,42.68927014907787,10.318875696938775,-11.554063878574826,-14.026924118986543,56.616,-0.4669887000145394,0
-13.792860837329473,31.5111082644964,-43.46018749543682,41.975340450921884,13.176286220141925,-13.187396629681468,-16.222289973112396,56.62,-0.4629887000145416,0
-14.059290467337894,30.804249158319482,-42.79553292359272,42.66847758984973,11.792405360135735,-12.722692920224588,-15.687615797149698,56.624,-0.45898870001453673,0
-12.56462030131746,25.86775722764191,-41.98248406864459,44.73366093732761,6.166070681102881,-10.114567212728343,-12.10581726338199,56.628,-0.45498870001453895,0
-10.023846022394284,19.569122475444374,-42.212949677619804,47.1971989027181,-0.6607608514630864,-6.887684584636217,-6.981080242049057,56.632,-0.45098870001454117,0
-7.620237858373782,15.737857012567455,-44.368253366186586,48.719691679216915,-4.811310989037196,-4.951764054131292,-2.705982424055466,56.636,-0.4469887000145363,0
-6.072651411872665,15.899739487041979,-47.804417392923526,48.60202859172166,-4.862378808984269,-4.90296511180023,-0.8593553531829147,56.64,-0.4429887000145385,0
-5.228978217242979,17.992653543222204,-50.341317430130324,47.32932672350206,-3.0454615793665,-5.49194096359492,-1.2142820763894728,56.644,-0.4389887000145407,0
-4.5049076509979455,18.421925023019647,-49.8588071667542,46.12981397130932,-3.046678006704249,-4.876458373491047,-2.2648877963814833,56.648,-0.4349887000145358,0
-3.6354790311257297,15.5303905585693,-46.235255005025394,45.92884348763575,-6.4221004003667606,-2.4919722313436004,-2.67442737834353,56.652,-0.43098870001453804,0
-2.939774581992612,11.100497166517544,-41.730218825805906,46.64073005541777,-11.110631750713418,0.32010319881080845,-2.2807052622341666,56.656,-0.42698870001454026,0
-2.8676719528511607,8.429442630103127,-39.182067787278285,47.40702827096472,-13.533179368296132,1.606746582842535,-1.8602983754847697,56.66,-0.4229887000145425,0
-3.3776401066396398,8.949109532999369,-39.514845634017775,47.48501702869269,-12.207577605113412,0.768947352710029,-2.103010568631234,56.664,-0.4189887000145376,0
-3.859111828483975,10.829393906727041,-40.924649133101155,46.904237655344325,-9.254935088892486,-0.7836065503795904,-2.9113289612141293,56.668,-0.4149887000145398,0
-3.705253155456512,10.982301933766582,-40.686171512117426,46.30187939126029,-8.254263793791562,-1.0050704559111165,-3.6334224077502273,56.672,-0.410988700014542,0
-2.926959032116206,8.406870232321758,-37.997966030976684,46.19130171014471,-10.574046868771655,0.7067265142443551,-3.805926524846258,56.676,-0.40698870001453713,0
-2.14536041389173,5.43249997249797,-35.12304474607837,46.44537220131008,-13.86386476680526,2.7964905021751445,-3.542092749207819,56.68,-0.40298870001453935,0
-1.9624465337768915,5.556082065312761,-35.55724384805558,46.481247215568025,-14.23118512551947,2.9533162112837306,-3.2397699848125527,56.684,-0.39898870001454156,0
-2.3754848127383537,10.037173308894351,-40.7804796809275,45.87607854535211,-9.939797387401784,0.2832585430842623,-3.1007485162630593,56.688,-0.3949887000145367,0
-2.8535578873419913,16.653563733848493,-48.60144417357916,44.740865297334565,-2.995599988201391,-3.851398460225929,-3.092428521834551,56.692,-0.3909887000145389,0
-2.977374892722359,21.77427011205451,-54.71148881085485,43.5239793962549,2.8033199942511784,-7.090054067511835,-3.322651731471511,56.696,-0.3869887000145411,0
-2.9206330599705868,23.53045339022426,-56.094032714837105,42.573091094549305,5.204941074239668,-8.11847596682204,-4.17534381738347,56.7,-0.3829887000145362,0
-3.202526513380764,22.86116209103053,-53.230181725045924,42.0004651305533,4.841171546253306,-7.48296034110243,-5.78713018830798,56.704,-0.37898870001453844,0
-3.9346702358737478,21.578333122799695,-49.222527831603415,41.94869524145032,3.475749105499391,-6.5027081432083325,-7.34287125906387,56.708,-0.37498870001454065,0
-4.393993467672699,19.79475016112227,-46.84666472226886,42.796237346182984,1.407064145202916,-5.585442044159886,-7.171951418406686,56.712,-0.37098870001453577,0
-3.503321471587433,15.691786087405774,-46.34282436716043,44.869132735126364,-2.9171262587485693,-3.8093490741205316,-3.988297650915134,56.716,-0.366988700014538,0
-0.8906580370537934,8.000686613938877,-45.835290183453054,47.85417651996359,-10.565093380217641,-0.22222599444899382,1.6584044612710394,56.72,-0.3629887000145402,0
2.4704783246307516,-1.4958445751461353,-43.666349403099325,50.616746351157346,-19.700632939690095,4.57044126576124,7.2051609763862405,56.724,-0.3589887000145424,0
4.752398420240181,-8.36975847850385,-40.23819657907457,51.850657707462716,-26.017595182748014,8.322780575136823,9.699713537486744,56.728,-0.35498870001453753,0
4.585395416455248,-8.862463728033507,-37.68549111001818,51.11836082980194,-26.026451688004858,8.828765582923976,8.041884696875421,56.732,-0.35098870001453975,0
2.083314919826081,-3.036849796782302,-37.91625553554134,49.29380418436312,-20.07788520089761,5.782902508251708,3.870968920780355,56.736,-0.34698870001454196,0
-1.3098850696930746,5.301347366587005,-40.996365206042356,47.8692291979468,-12.06764791067514,1.0097407511060763,0.19358087077072075,56.74,-0.3429887000145371,0
-3.9942028286357276,11.850915550185634,-45.255364753473295,47.67511857753672,-6.032700916944716,-3.133131037001489,-1.1106345916670928,56.744,-0.3389887000145393,0
-5.349630313131315,15.102577802424838,-48.717909485250495,48.19883184402838,-2.9604947693217496,-5.5884251162685725,-0.684949962481029,56.748,-0.3349887000145415,0
-5.875528439065757,16.651845126418838,-50.386201448696,48.166707627711936,-0.8446657596745635,-6.951280848171674,-0.7608762585227312,56.752,-0.3309887000145366,0
-6.360891266881801,18.636006059712535,-50.41178054058292,46.83655452736463,2.373610937693321,-8.231938474868373,-2.8415612424373573,56.756,-0.32698870001453884,0
-7.01566478494788,21.24592241303443,-49.47146056151433,44.740383863422885,6.286013391685593,-9.542388225938847,-6.242806095741832,56.76,-0.32298870001454105,0
-7.436522276167619,22.93090874587968,-48.25848744152353,43.152253690883725,8.63876902893368,-10.159126582942418,-8.867795165063482,56.764,-0.31898870001453616,0
-7.347416064751599,22.84305885096063,-47.460042200875804,42.819083249277014,8.327933922903668,-9.785969273010133,-9.39664848450373,56.768,-0.3149887000145384,0
-7.209089809628033,22.563071850643272,-47.78706574092431,43.22354531053009,7.325683621371649,-9.433858082887445,-8.68228714910518,56.772,-0.3109887000145406,0
-7.913691028611067,24.894061228164507,-49.59568974932706,43.11471317486953,9.124740825013156,-10.699666518736267,-8.924467931372773,56.776,-0.3069887000145357,0
-9.769991946506323,30.740588254508047,-52.36986634250531,41.77943074791865,15.022755696629634,-14.01248633174664,-11.390430078298007,56.78,-0.3029887000145379,0
-11.831495049478786,37.385591720216084,-54.81996766666651,39.79560098081634,22.100818865711787,-17.712804327300766,-14.917744523298103,56.784,-0.29898870001454014,0
-12.40929290005901,40.32343882278228,-55.851516186964,38.524699390060526,25.317133194404803,-19.173535889386923,-16.730926430837624,56.788,-0.29498870001454236,0
-10.475195088716099,37.245881185053285,-55.628606409878685,38.8370698942513,22.041444245937832,-17.125086904482856,-14.895506922164722,56.792,-0.29098870001453747,0
-6.700181224654472,30.406076587227144,-55.591864488483374,40.297600533154466,14.719894134274547,-12.984547763075673,-10.146977778442599,56.796,-0.2869887000145397,0
-3.0884611913632414,24.906160899337614,-57.16641275126661,41.574729404806796,8.944679813847408,-9.783185937825326,-5.387510237536601,56.8,-0.2829887000145419,0
-1.4317537983917512,24.29923906685725,-60.23516267020187,41.65867764866489,8.567291229521743,-9.555608228142178,-3.3026832483080395,56.804,-0.278988700014537,0
-1.9349203404191155,27.536590341573575,-62.868104815692746,40.7337303518744,12.381598271856383,-11.587842832217614,-4.261050976974846,56.808,-0.27498870001453923,0
-3.2436179419186932,30.11106535992227,-62.74514538119076,39.92183605158566,15.46381293874452,-13.173809219219079,-6.334141807923891,56.812,-0.27098870001454145,0
-3.811273533965715,28.330569430174954,-59.12255159903628,40.19330456391343,13.862451415427106,-12.176867347692403,-7.275632928821076,56.816,-0.26698870001453656,0
-3.2979088074643266,22.729029344958818,-53.59929185038176,41.48522576666189,8.209563323798598,-8.991383957007145,-6.535233820566052,56.82,-0.2629887000145388,0
-2.6920461093887265,17.45132208472547,-48.95097681555409,42.819179513897176,2.9209578528663145,-6.079398658035952,-5.469037868510133,56.824,-0.258988700014541,0
-3.0900347197575857,16.215369271931195,-46.999075065778854,43.261582636385654,1.8375538132820526,-5.5490406860786194,-5.6763552499838035,56.828,-0.2549887000145361,0
-4.35597613030083,18.608598195304037,-47.31211035120216,42.822917486758996,4.428489451914424,-7.056111713330543,-7.135806939143908,56.832,-0.2509887000145383,0
-4.988444757951003,20.133256772087655,-47.77181571668357,42.48994667164182,6.042435079244532,-7.967905055666873,-7.937472992672536,56.836,-0.24698870001454054,0
-3.360582364989158,15.994567410675183,-46.42601214556667,43.3762657924819,1.9209724953655307,-5.622324346475236,-5.882886841491517,56.84,-0.24298870001453565,0
0.7962300211608487,5.310855951826911,-43.03924350768437,45.73152331713645,-8.63938710459403,0.3516505268194574,-0.5116292046652231,56.844,-0.23898870001453787,0
6.010908056682302,-7.865025747865576,-39.146376231956765,48.64336436300648,-21.542977745534966,7.648604218668016,6.251503087000536,56.848,-0.2349887000145401,0
10.121761476951542,-17.51168667298473,-36.73410629030614,50.67845801703646,-31.02592847562766,13.062102529272888,11.409399415657639,56.852,-0.2309887000145423,0
11.829913334205088,-20.084251443717413,-36.724198892768996,50.96078610422525,-33.90667578398812,14.838258123718953,13.086168558325241,56.856,-0.22698870001453741,0
11.478418693764057,-16.91973019200329,-38.41086868412287,49.862577063385814,-31.59110623514498,13.728217808052943,11.852491546068343,56.86,-0.22298870001453963,0
10.549525892032804,-12.960222639233,-40.11140824611314,48.79132370259622,-28.612833257316662,12.12757322723325,10.216041320800533,56.864,-0.21898870001454185,0
10.463369033719534,-13.085287817195264,-40.37424007898251,49.226054666435566,-29.243656319493198,12.239773950421956,10.77398656509393,56.868,-0.21498870001453696,0
11.696623872750138,-18.923535316249065,-38.83617484137225,51.690811805442515,-34.821671063370864,14.735120545798063,14.458824997001482,56.872,-0.21098870001453918,0
13.77185228255185,-28.259082426245268,-36.25361606216671,55.38685898625679,-43.420075664101155,18.691037300605235,20.083025583099253,56.876,-0.2069887000145414,0
15.874635564832207,-37.01661547992513,-33.86968260520835,58.73020184195953,-51.57038878358937,22.51699024493421,25.334859216996925,56.88,-0.2029887000145365,0
17.465688125595996,-42.073324068564006,-32.641791693123956,60.3976454580838,-56.523333431425414,25.006481965089865,28.36863364434372,56.884,-0.19898870001453872,0
18.47199198344806,-42.9186601959118,-32.80244755585256,60.12973679409029,-57.58435452588304,25.85396045410678,28.84977304600229,56.888,-0.19498870001454094,0
19.095953238636522,-41.29888781313159,-33.923623300253624,58.73341450193595,-55.952865469937414,25.513483268743418,27.832525574006763,56.892,-0.19098870001453605,0
19.52680629516263,-39.44782704466019,-35.340461133985485,57.335171148980784,-53.45999256243533,24.673540082222075,26.712763214715487,56.896,-0.18698870001453827,0
19.774871503086278,-38.34260203482427,-36.616633643482885,56.50144144024206,-51.161644513939294,23.732120584868607,26.112446664049497,56.9,-0.18298870001454048,0
19.68423947224384,-37.22728066133149,-37.75289695036139,55.92370436450265,-48.75116426778781,22.585413310903636,25.53798473183056,56.904,-0.1789887000145356,0
19.091817349560092,-34.656392794156304,-39.027519237226514,54.888920483441346,-45.21307353075922,20.871217681730478,24.045030047410133,56.908,-0.1749887000145378,0
18.06240974820476,-30.187441264834654,-40.61144963642037,53.10110145446205,-40.24788895750423,18.528036415499816,21.35523224059261,56.912,-0.17098870001454003,0
17.05351604220691,-25.33609614961125,-42.26500885340812,51.126083152670134,-35.28954144665312,16.23677231781021,18.474274936985232,56.916,-0.16698870001454225,0
16.810357229837848,-22.89828455570658,-43.372580965575786,50.049006188819746,-33.0524863167195,15.268606957465346,17.19538146187895,56.92,-0.16298870001453736,0
17.92087144118157,-24.97450830185732,-43.32582374807705,50.60354950630305,-35.63271528969753,16.6559378093056,18.752688582841678,56.924,-0.15898870001453957,0
20.272697383462333,-31.136122765665558,-41.99545119565349,52.494659973366524,-42.51690366396122,20.225341626759537,22.655778641691864,56.928,-0.1549887000145418,0
22.878055975229067,-38.25372516243547,-39.93710589496536,54.50337799766845,-50.256275523265,24.335961898834697,26.72971070893363,56.932,-0.1509887000145369,0
24.36400274554502,-42.36936228764379,-38.13500511243263,55.338912521789105,-54.462594770948286,26.755257160952716,28.508789742737868,56.936,-0.14698870001453912,0
23.89691509911071,-41.4158451193439,-37.39822537818989,54.59660839943069,-52.89586705144114,26.191592355381605,27.02482169505189,56.94,-0.14298870001454134,0
21.856497301650677,-36.79283319012274,-37.789127256650495,53.07734599315998,-47.29196408394993,23.337196103631232,23.602885132281273,56.944,-0.13898870001453645,0
19.65873786788531,-32.50419960568422,-38.5052408428751,52.20204473866126,-42.30840092527259,20.502201171040277,20.954857596245088,56.948,-0.13498870001453867,0
18.76641330548986,-32.31421866182536,-38.39424315077803,52.93945532520739,-42.133551389650584,19.96505213565553,21.171092435901212,56.952,-0.13098870001454088,0
19.61187092677024,-36.90662464433097,-36.85613716048839,55.03679384723873,-47.226207739296505,22.22067282652695,24.11963194357996,56.956,-0.126988700014536,0
21.286745559862943,-43.15884725750537,-34.52853536895342,57.13087467554305,-53.73313228347026,25.491899139199663,27.510995535323424,56.96,-0.12298870001453821,0
22.277179717799847,-46.208785387163715,-33.155053945297766,57.68352119326269,-56.19903926086671,26.9713537266535,28.63082395561215,56.964,-0.11898870001454043,0
21.695142876026654,-42.97795156009623,-34.524317780163955,56.08725624359616,-51.67329913671429,24.942364048265528,26.450805309086107,56.968,-0.11498870001453554,0
20.049869139150474,-34.665036279435135,-39.09075862462706,53.151401464709586,-42.16590420033677,20.207955037932123,22.51247346260677,56.972,-0.11098870001453776,0
18.945513301199586,-26.318187104382684,-45.300131522322786,50.60611754160831,-33.5384025003325,15.712868747531592,19.892221536698507,56.976,-0.10698870001453997,0
19.908201309819336,-23.602404581794822,-50.294671956779005,49.95747723012789,-31.52659037146834,14.559823941486284,20.99816442860867,56.98,-0.10298870001454219,0
23.205654785338393,-28.927451048806237,-51.6799900359828,51.495600075076624,-37.73870140728534,17.824911775002477,25.8199758566569,56.984,-0.0989887000145373,0
27.534909281650272,-39.68750249344502,-49.129266325226276,54.151116299827486,-48.531017790679726,23.761054822959423,31.900706204913867,56.988,-0.09498870001453952,0
30.82274638584043,-49.94879482139448,-44.58665650028006,56.27745013867211,-57.558051102005045,28.98163380736263,36.011672091804414,56.992,-0.09098870001454173,0
31.577928791566467,-54.43628094418067,-40.85117653745092,56.76301146102695,-60.08980626098483,30.762260289131905,36.274063200891106,56.996,-0.08698870001453685,0
29.837299115416602,-51.950318025642815,-39.60604532584978,55.66411971566987,-55.93434655185756,28.779318350632263,33.20997272163142,57.0,-0.08298870001453906,0
27.045970793839224,-45.764041657941036,-40.41851994755645,53.95968876108632,-48.960426083095456,25.055887708834977,29.081440424832422,57.004,-0.07898870001454128,0
24.992299543700014,-40.86491467171381,-41.432017220307216,52.723526868071595,-43.86594845862517,22.271879650322358,26.175174288552213,57.008,-0.07498870001453639,0
24.607133971663295,-40.30908333645263,-41.066129625421276,52.4174571292421,-42.872707363728416,21.82848095621027,25.394848268486673,57.012,-0.07098870001453861,0
25.508301988674138,-43.50633496564527,-39.24802381582581,52.8100487557152,-44.8367316654671,23.15209544324335,26.120644259305493,57.016,-0.06698870001454083,0
26.55887507164928,-47.50772351709738,-37.202827746131724,53.43380785880218,-47.08403102923235,24.619024405368,27.18287495664201,57.02,-0.06298870001453594,0
26.89415472533646,-49.83966628181872,-36.150143590168085,54.05476213926261,-48.01732828765888,25.125150214418657,27.933071080628004,57.024,-0.058988700014538153,0
26.53002742957715,-50.30286264531829,-36.1849182505971,54.7194605594743,-48.125370774491984,24.877577615959098,28.486086065396808,57.028,-0.05498870001454037,0
26.090569784917964,-50.354426514917705,-36.34581083822,55.43174926366266,-48.731145786665095,24.809646519242254,29.099417571979945,57.032,-0.05098870001454259,0
26.014102946234505,-51.03630497829187,-35.70186204422389,55.895408150998804,-50.00577631392108,25.34086825045458,29.49356398874897,57.036,-0.0469887000145377,0
26.068113266181456,-51.703699544105426,-34.33748416887513,55.66629368404893,-50.410590485694655,25.79559699191744,28.921770256527402,57.04,-0.042988700014539916,0
25.675752158196932,-50.87082023094043,-33.25982619700313,54.60165751281624,-48.24482177551825,25.11051969506826,26.98753883738035,57.044,-0.03898870001454213,0
24.72441861121803,-48.27578317070281,-33.322200847335374,53.147460670990704,-43.80602463294089,23.150772411833938,24.381356956936404,57.048,-0.034988700014537244,0
23.989761295334517,-45.934809434566034,-34.229488946066574,52.12177966163816,-39.90646402703574,21.272953353062984,22.68626809763271,57.052,-0.03098870001453946,0
24.621592082600255,-46.827267910492544,-34.652689788746784,52.12182361763425,-39.91078196186053,21.40520167751725,23.242122283348095,57.056,-0.026988700014541678,0
27.04994007436655,-52.1426225193532,-33.45709337087799,53.046335252735865,-44.79032287487614,24.311788334830894,25.981975103174047,57.06,-0.02298870001453679,0
30.317473670461318,-59.57260222459535,-30.967686155609453,54.13865913414174,-51.77383371529134,28.58007947369361,29.277909817199507,57.064,-0.018988700014539006,0
32.56680632976781,-64.44234449788101,-29.04376955564692,54.513488355724704,-55.97477638360244,31.368695135779983,31.01190061585785,57.068,-0.014988700014541223,0
32.40547202611078,-63.08805115030969,-29.692145837367676,53.74997366545343,-53.91121669660815,30.481153392995594,30.054814599725702,57.072,-0.010988700014536334,0
30.045771861314893,-55.892586308443725,-33.23208754223841,52.13634675625746,-46.233225667990645,26.16048615570645,27.015294745394005,57.076,-0.006988700014538551,0
27.24619817243613,-47.52046581273092,-37.5477305433461,50.47195941735852,-37.563998487622975,21.15454076740125,23.759496486504112,57.08,-0.0029887000145407683,0
26.07155657834225,-44.03025189252304,-39.23325233366289,49.63918670372594,-33.57480012764035,18.94433136705051,22.18322970470756,57.084,0.0010112999854641203,0
27.45989876339124,-48.90376876728256,-35.97184499282041,50.2097705394284,-37.40373628759237,21.430849991938487,23.17883075293719,57.088,0.005011299985461903,0
30.691666421031975,-60.76855784415996,-28.430121163137667,52.21135169132728,-47.815911941654804,27.7248844504927,26.386688386100488,57.092,0.009011299985459686,0
34.05891344772621,-74.2770546406827,-20.169319821645427,55.074946682746976,-60.10567380643807,34.79412552321933,30.624062615073647,57.096,0.01301129998545747,0
36.08254988426507,-83.39942040737897,-15.480964359169073,57.803888402669614,-68.9085911792221,39.38621860845256,34.51631905038285,57.1,0.017011299985462358,0
36.33016151406788,-84.91565063411146,-16.614995872919415,59.408973032681494,-71.1037908961526,39.88388605867419,37.011416797759914,57.104,0.02101129998546014,0
35.382992310916045,-80.0008519542496,-22.376888274632357,59.48745031219165,-67.23232128064626,36.98746266316508,37.752156223255426,57.108,0.025011299985457924,0
34.22360268038531,-73.14503802094966,-29.091230520046174,58.57638712190806,-60.85391889603459,33.00278903742228,37.28740859731476,57.112,0.029011299985462813,0
33.61981257530418,-69.2394557262524,-33.180688689261494,57.89319527887878,-56.327889329322,30.342555568573268,36.892470322079696,57.116,0.033011299985460596,0
33.84099053826868,-70.61278041118395,-33.436930168377145,58.46969377885421,-56.22722633814028,30.165942397734597,37.80031020284389,57.12,0.03701129998545838,0
34.65973569857981,-75.7371605707637,-31.37624395907571,60.2508914773132,-59.807367184219764,31.866372633621832,40.14377190454433,57.124,0.04101129998546327,0
35.476434325378555,-80.35104435299478,-29.608355243908008,61.93164625287007,-63.50530297211865,33.60929037661037,42.44733161416243,57.128,0.04501129998546105,0
35.54684236303909,-80.3253366061523,-29.65895295368688,61.823875127066145,-63.331437347980035,33.5721301654998,42.37287925221422,57.132,0.049011299985458834,0
34.36509122992813,-74.46264664521847,-30.977546081609212,59.18060553550611,-57.70679404690616,31.149901830847206,38.45138817745238,57.136,0.05301129998546372,0
32.07173724934852,-65.32593956635681,-31.765634787418378,54.90139251720425,-48.732685026648184,27.360378184354442,31.490751429516163,57.14,0.057011299985461505,0
29.537940676729527,-57.417874091715106,-30.74717056033,50.94537296984509,-40.77347116520134,24.129449734084965,24.325752436586868,57.144,0.06101129998545929,0
27.8882249119423,-53.92352987606242,-28.329695944575082,48.84253929941895,-37.21830073511366,22.893026362138436,19.847735982251482,57.148,0.06501129998546418,0
27.696351538111166,-54.41957752057252,-26.25157607708352,48.51833879844914,-37.87411958950408,23.515547599893402,18.815035250706398,57.152,0.06901129998546196,0
28.488352955264805,-55.35582665356641,-26.13543985647112,48.44973497612675,-39.15108852115023,24.38238062640345,19.321886473392738,57.156,0.07301129998545974,0
29.03982111700257,-52.981693567375,-28.224243808006324,47.0479658622968,-37.00666905167615,23.65050989630555,18.474309551452553,57.16,0.07701129998545753,0
28.29381138219527,-46.36539281832896,-31.30883632779272,44.07782712869026,-30.252848809123602,20.680932142049645,14.874507302310098,57.164,0.08101129998546241,0
26.143646844932313,-38.00944875203889,-33.795190173271074,40.86803734545435,-21.422751618962238,16.472272796813755,9.743433557071768,57.168,0.0850112999854602,0
23.41218736635292,-31.578985029033294,-34.94819832156829,39.13368375070613,-14.46599184235615,12.736608846392665,5.710695229505994,57.172,0.08901129998545798,0
21.080830571533877,-28.766470224266886,-35.30671115036488,39.47629444069605,-11.3495008586947,10.443599456816758,4.421957764279765,57.176,0.09301129998546287,0
19.50047526946261,-28.070645023925387,-36.03228887561048,40.909595932263954,-10.618978462144035,9.13468691976817,5.177154240185187,57.18,0.09701129998546065,0
18.29062553212456,-26.508559052062928,-37.83339276703821,41.808179009028066,-9.14690992387512,7.591965213109931,5.798091988713701,57.184,0.10101129998545844,0
16.931723865534185,-22.571093003156594,-40.385024785948985,41.36860008504065,-5.30986804127627,5.1706198997271615,4.795041980079869,57.188,0.10501129998546332,0
15.387884983864458,-17.608069926375844,-42.67378191087208,40.22800473596505,-0.5263560105803057,2.483164497579584,2.7091536304191624,57.192,0.10901129998546111,0
14.130195654721838,-14.389665939518375,-43.89355192685849,39.71379056600865,2.265690957062283,0.7821521111807723,1.3913885774033328,57.196,0.11301129998545889,0
13.60317023730716,-14.358824473154915,-44.071661084543,40.50143792252112,1.584618419007919,0.7000282565675312,2.0412307222942077,57.2,0.11701129998546378,0
13.76439004823464,-16.356205469601093,-43.875819348895256,41.98902715360741,-1.198769913408976,1.6605502638952592,4.016827266168029,57.204,0.12101129998546156,0
14.209337280218609,-18.080102590353878,-43.802565508723205,42.960486660715624,-3.4548003854434737,2.5861091254130653,5.581535418173278,57.208,0.12501129998545935,0
14.714744958053881,-18.726865264073666,-43.532873715016215,42.83924771441479,-4.214943022810472,3.1619013470452475,5.758787982386462,57.212,0.12901129998546423,0
15.549424305459855,-19.997837774109204,-42.12809991315,42.27469107559409,-5.343943007128627,4.285875282040377,5.359890031293523,57.216,0.13301129998546202,0
17.15669282997091,-24.30375478232179,-38.98133580291167,42.49000653470634,-9.634260395448699,7.136257590676252,6.136394025328658,57.22,0.1370112999854598,0
19.53679448477291,-31.934168514138985,-34.684841334072246,44.05618934072452,-17.678304586855205,11.75020352068871,8.954127088880302,57.224,0.14101129998545758,0
22.043204337866168,-40.16481281131609,-30.9414394598572,46.31371619948967,-26.74115376031274,16.609774661912255,12.880710832217947,57.228,0.14501129998546247,0
23.892490618322167,-45.409261453545014,-29.451476067379172,48.00153423558533,-32.92618064673013,19.781521462153293,16.111371851593514,57.232,0.14901129998546025,0
24.892982719170284,-46.39984104165684,-30.66795600349799,48.45010113144855,-34.59027185023455,20.565702415909307,17.749282628861238,57.236,0.15301129998545804,0
25.598596190776615,-45.21722919173932,-33.517945903978806,48.1560134359445,-33.63135197771787,20.02135934071069,18.590558106004185,57.24,0.15701129998546293,0
26.666843754392637,-45.07718398815999,-36.3653566318135,48.20159763777217,-33.36781817972949,19.815433095272372,20.126484312265788,57.244,0.1610112999854607,0
28.06906076561117,-47.074440666350874,-38.35158854358113,49.142170336938044,-35.17065166023801,20.542082515486065,22.84336725213472,57.248,0.1650112999854585,0
29.0200467478767,-49.195841636247714,-39.88475534048461,50.487154754915096,-37.272381424240784,21.223290032790164,25.622486865391142,57.252,0.16901129998546338,0
28.772498950648316,-48.629078653335306,-41.858541324922975,51.26547887013682,-36.93269544775912,20.505555194814367,26.876782410417903,57.256,0.17301129998546116,0
27.48483059619963,-44.99884285951108,-44.421257050854514,51.062598699766106,-33.67213209635857,18.30724109438856,26.23756161636985,57.26,0.17701129998545895,0
26.227369852408252,-41.16112095575772,-46.56213972159651,50.46709462903084,-30.17313576466693,16.173289756708723,25.02864220387335,57.264,0.18101129998546384,0
26.047956661573295,-40.66465393207192,-46.95800263915161,50.49758911736464,-29.861831939461602,15.912140726609113,25.026802005138084,57.268,0.18501129998546162,0
27.01090912543115,-44.42823162539483,-45.229680792632415,51.62059250640237,-33.638946296873236,17.885391116428764,26.779965966638198,57.272,0.1890112999854594,0
28.198655521004653,-50.0225944085131,-42.31238587176082,53.35550459316882,-39.13624883712174,20.720510169423562,29.196558833798594,57.276,0.1930112999854643,0
28.699077883171128,-54.280118742710286,-39.53616454515978,54.83050567057753,-43.270223475507464,22.7676355356398,30.789287673989072,57.28,0.19701129998546207,0
28.571370560319533,-56.51488688074497,-37.35441040954503,55.6789655725757,-45.43073888222297,23.799708519407115,31.249991520210628,57.284,0.20101129998545986,0
28.770984186872536,-58.98562135609691,-35.05593477735888,56.345190659534865,-47.94584061596858,25.161346490006473,31.709875413010504,57.288,0.20501129998545764,0
30.0683044193225,-64.07826493538882,-31.79373325853052,57.50051236649651,-53.260462307959045,28.15203300802966,33.411610708029706,57.292,0.20901129998546253,0
32.05200851970128,-71.11665809964794,-27.861843472936513,59.18700942193409,-60.70633898647788,32.2855831319931,36.16023948543383,57.296,0.2130112999854603,0
33.27494311182745,-76.19939883267625,-24.81372492914048,60.58112676968049,-66.29194560228174,35.28508678670579,38.16391269588474,57.3,0.2170112999854581,0
32.48676382800532,-75.47952147207197,-24.148320734809104,60.65188811382447,-66.00408566920997,34.98719692563369,37.50607900862753,57.304,0.22101129998546298,0
29.812690727836472,-68.84715968455207,-25.780334204333307,59.113798835422116,-59.611209587671894,31.412089217513092,33.90012469578557,57.308,0.22501129998546077,0
26.76301003843426,-60.49209141517877,-27.833916185157722,56.79251416352164,-51.361363058194314,27.018579187652662,29.113267268922236,57.312,0.22901129998545855,0
25.058939207149212,-55.750178921787445,-28.079907529716998,55.06557486367683,-46.83067860457125,24.84298990763479,25.693261077614828,57.316,0.23301129998546344,0
25.345348107353182,-57.059702514725025,-25.75800614179852,54.85866540932628,-48.687312741692374,26.169129200567465,25.131878680968995,57.32,0.23701129998546122,0
26.895655540835662,-62.50849932206368,-22.14189017052352,56.02211951614121,-54.982791291922304,29.739092243262792,26.976313484269816,57.324,0.241011299985459,0
28.43336462317993,-67.91688700502722,-19.38453911998594,57.53989905576756,-61.16007289889842,33.03451620261811,29.453719142345964,57.328,0.2450112999854639,0
29.201193013868465,-70.28561455300301,-18.754233516992446,58.33760448340024,-63.73830743326675,34.33080716240668,30.9085508435868,57.332,0.24901129998546168,0
29.32881235564393,-69.62305752538776,-19.830448024137976,58.04773672570185,-62.541630579698456,33.74395581962647,30.874631228251932,57.336,0.25301129998545946,0
29.34566445577769,-68.05302219772555,-21.214727642532573,57.209909825074654,-60.03570007610675,32.623247340504534,30.124628295007994,57.34,0.25701129998546435,0
29.490177232434103,-67.56772364723804,-21.897433014255384,56.83096839091931,-58.90170013743471,32.149081618095266,29.89662955747947,57.344,0.26101129998546213,0
29.52029733336136,-68.55271284680283,-21.96662502870012,57.6419775969465,-60.07738142855009,32.47197040943212,30.96247396431307,57.348,0.2650112999854599,0
29.10263969573571,-69.99422145140234,-22.158832089191467,59.54367927389626,-62.55425736519503,32.949079137750566,33.11191279840629,57.352,0.2690112999854577,0
28.269598669462386,-70.66219118116636,-22.900373667737444,61.60654141019501,-64.55663028895546,32.961374409657815,35.28168064854405,57.356,0.2730112999854626,0
27.455220046416883,-70.06770034630975,-23.84375695618125,62.66371352021852,-64.89754418932955,32.45568011922969,36.23438780595547,57.36,0.27701129998546037,0
27.12590366535236,-68.65204217899173,-24.258887648076165,62.14108800260233,-63.640505715583195,31.859587916536427,35.424855958159995,57.364,0.28101129998545815,0
27.420910986016285,-67.41559829556768,-23.777134539401246,60.53253782812486,-61.9164606827949,31.655453392573687,33.500291311048976,57.368,0.28501129998546304,0
28.126441475162736,-67.32091169451978,-22.761937354763845,59.08622507499649,-61.1378400111364,32.04244823563913,31.965574274621662,57.372,0.2890112999854608,0
28.911834108339253,-68.61187825297918,-22.06725011059005,58.830328190806696,-61.96069805689972,32.82615449302574,32.07150962829725,57.376,0.2930112999854586,0
29.529829615404704,-70.29267487655906,-22.511830518398536,59.66087391765893,-63.52783364678935,33.45011896735075,33.69151654133258,57.38,0.2970112999854635,0
29.834563013617124,-70.32326298073023,-24.48655201014227,60.29827875142002,-63.677226501611415,33.164133713302924,35.19006601414385,57.384,0.3010112999854613,0
29.752870963870826,-66.9012970061378,-27.803651927285603,59.28566910860659,-60.40071198865296,31.439625741106926,34.62749510849204,57.388,0.30501129998545906,0
29.38606684890485,-60.2407810240479,-31.67734416903123,56.29527310089835,-53.7980781328568,28.551586025948524,31.483277350184185,57.392,0.30901129998546395,0
29.173754826549033,-53.35429565417206,-34.83531292340346,52.63196359768211,-46.93039491489673,25.87048172792318,27.443803340317924,57.396,0.31301129998546173,0
29.842432440470052,-50.68955937168547,-35.92852265549705,50.40711008926717,-44.41184930245119,25.363433765890488,25.41695503400598,57.4,0.3170112999854595,0
31.99375605347593,-55.172148185363035,-34.25144856001289,50.97545630509557,-49.32542244469907,28.36825379780733,27.411553033696155,57.404,0.3210112999854644,0
35.57215099591332,-65.83786258889391,-30.364921081909532,53.90373879271862,-60.70353784559329,34.46072525903418,32.969706468730585,57.408,0.3250112999854622,0
39.678454715437326,-78.10533400524594,-26.030309421581414,57.326076666676805,-73.72112776587923,41.39940023545104,39.45283957514145,57.412,0.32901129998545997,0
42.976783155987015,-86.67968986469836,-23.280243320731174,59.367241467739305,-82.6948602704818,46.377770934823666,43.93299789736129,57.416,0.33301129998545775,0
44.441741551441005,-88.84972718684935,-23.195244935325153,59.42468860965335,-84.64828370068363,47.72132675547624,45.10549890628753,57.42,0.33701129998546264,0
43.8876210647076,-85.6259135636667,-25.312315918226044,58.29247851224661,-80.70774617244075,45.74293691644469,43.7229391609346,57.424,0.3410112999854604,0
41.913026313307626,-80.10631801795631,-28.133361999855932,57.184349435446194,-74.46142818011856,42.16265414126946,41.4410783079075,57.428,0.3450112999854582,0
39.399441625748125,-74.84248350852933,-30.284691246252688,56.659272126591794,-68.97791953073322,38.70728646686523,39.33909406631001,57.432,0.3490112999854631,0
37.033417628248564,-70.57816819490563,-31.346595676273314,56.41196487881945,-65.10815206518886,36.12055478203242,37.4669786472673,57.436,0.3530112999854609,0
35.18323582118255,-67.08605881036414,-31.731473568643892,55.96368641520628,-62.2031810142847,34.285973356858115,35.58781780004577,57.44,0.35701129998545866,0
34.04004851283916,-64.66782320632457,-31.896075318279575,55.41106060836684,-59.987643978966474,33.04267202999276,34.05776135237184,57.444,0.36101129998546355,0
33.69229864727388,-64.3895010762503,-31.757036271664052,55.40933723661421,-59.370552816977785,32.67046853254032,33.74498574846367,57.448,0.36501129998546133,0
33.98393599205805,-66.72500715198298,-30.890619082764086,56.42080013918445,-61.32377444643044,33.505904235464286,35.028760314470695,57.452,0.3690112999854591,0
34.37963273134657,-70.23914349810204,-29.245450595701595,58.0633820659649,-65.17817765201164,35.19062094061353,37.02913600789028,57.456,0.373011299985464,0
34.16913212425659,-72.13908584570675,-27.538677999526136,59.32608314915168,-68.46694979612901,36.545030035552585,38.10446833240103,57.46,0.3770112999854618,0
33.01246576854988,-70.64310304276604,-26.806539125166214,59.53278435141369,-68.91557530646828,36.45279114187843,37.36717621255859,57.464,0.3810112999854596,0
31.381080288849812,-67.02398122591498,-27.457436409865313,59.1178339361909,-66.82649555258483,35.018825082891354,35.79017388043305,57.468,0.38501129998546446,0
30.393798178749773,-65.09606283699488,-28.763872181546727,59.36731841419593,-65.35351076842211,33.78990898613004,35.66242020788799,57.472,0.38901129998546224,0
31.02922463525973,-68.13910806930672,-29.412568283468406,61.2428158676973,-67.94791290364155,34.58017739722145,38.6473713562382,57.476,0.39301129998546,0
33.30235670936433,-75.77221944198914,-28.749364691400466,64.33305551011837,-75.01138837755832,37.78527036443092,44.11228992703428,57.48,0.3970112999854578,0
36.12096683050326,-83.64476538614127,-27.611464509020614,66.95657729804584,-82.8439627382604,41.7063397322187,49.31630877265445,57.484,0.4010112999854627,0
38.00332446442466,-86.48799255796517,-27.876365322242652,67.42955089104878,-86.14331504689386,43.639312191987386,51.43548537964081,57.488,0.4050112999854605,0
38.09874887113141,-82.09861838438954,-30.945149817696652,65.43031955042315,-82.13901641048962,41.9360082556304,49.7177079353908,57.492,0.40901129998545827,0
36.688473418393116,-72.92806686469761,-36.38282905166956,62.255537198279406,-72.85111503808858,37.321838263809745,45.89616207397346,57.496,0.41301129998546315,0
34.80687365390591,-63.99690359629352,-41.93145644978294,59.73318173916576,-63.50411672225003,32.34319798880478,42.54922338645004,57.5,0.41701129998546094,0
33.37997297103521,-59.01230105377509,-45.01917569887175,58.76063882258507,-58.46969500260705,29.417733766893495,40.942826194740114,57.504,0.4210112999854587,0
32.6304419697921,-57.99189724627587,-44.61033753879964,58.760851843780294,-58.218495003765675,29.133151917091677,40.296284058177086,57.508,0.4250112999854636,0
32.155816913557054,-58.16556446729242,-41.89574075618825,58.48859438569687,-59.72605756109865,30.141628311783236,39.00132317354214,57.512,0.4290112999854614,0
31.4315824900373,-56.939754939886015,-39.25235999896323,57.37032978587795,-59.61461500570585,30.545512202262167,36.459305466377664,57.516,0.4330112999854592,0
30.172827816272413,-54.04196348447224,-38.33837742098481,56.09080877657763,-56.98389816267339,29.42316908338061,33.67743339189978,57.52,0.43701129998546406,0
28.271364027137615,-51.05058267657204,-38.89447805889767,55.88524215596503,-53.486082172528555,27.205570987105816,32.06896573778978,57.524,0.44101129998546185,0
25.549800498976573,-49.164510572212656,-39.18225920956778,57.246381092392824,-51.004632444134735,24.819249263271253,31.735971371274545,57.528,0.44501129998545963,0
21.762397823261757,-47.683873011538495,-37.57316212931781,59.319895116879955,-49.530181634036275,22.646365503335023,31.05855833141586,57.532,0.4490112999854574,0
16.940005610785686,-44.777493747235134,-33.858804574611916,60.600782698041954,-47.390045569419726,20.362167126161545,28.123388456277635,57.536,0.4530112999854623,0
11.710397361836382,-39.703409716008174,-29.199147996860766,60.29134762698239,-43.456122714828574,17.690506628716772,22.666428810161964,57.54,0.4570112999854601,0
7.1564152357143325,-34.145150311929655,-24.904412039905917,59.038339604729266,-38.9187859027969,15.150871249460632,16.622722164728252,57.544,0.46101129998545787,0
4.204152998124807,-31.178035320716134,-21.276607146561712,58.34823500342652,-36.67222459916021,13.909913955544262,12.664565109342481,57.548,0.46501129998546276,0
3.0241806213029996,-32.69678358112243,-17.597286536857265,59.22364032036743,-38.77622463698399,14.79915220776444,12.023321605528826,57.552,0.46901129998546054,0
2.9652903807333515,-37.63685534634401,-13.215223616135702,61.2792482363629,-44.38983658195798,17.428122504314395,13.569254423027038,57.556,0.4730112999854583,0
3.070288784981648,-42.592070563613326,-8.63862559353671,63.11520981104779,-50.131310676714335,20.253179271668497,14.923328966166439,57.56,0.4770112999854632,0
2.710151205506768,-44.24424088086964,-5.533088159938736,63.538427450887355,-52.51971620697766,21.566756262865994,14.481710328525962,57.564,0.481011299985461,0
1.8138249572630385,-41.48584114298385,-5.541042754219828,62.476041004865856,-50.291258212284454,20.554055046436975,12.474221100922271,57.568,0.4850112999854588,0
0.5958005203206488,-35.59103423002707,-8.919258362688055,60.801377081830736,-44.6942407863919,17.583814022460377,10.223541754495296,57.572,0.48901129998546367,0
-0.8516510315040142,-28.653827581145368,-14.166725671689093,59.36754120639541,-37.876380948618824,13.65353290749841,8.527511119063504,57.576,0.49301129998546145,0
-2.6757166166480157,-21.925720383720353,-18.965740087675265,58.24856918947601,-31.12795847900559,9.617127103628677,6.829439273944567,57.58,0.49701129998545923,0
-5.017896193340806,-15.440239445846032,-21.669912307202914,56.87808539896303,-24.52904965760846,5.851805633199576,3.9272065718356135,57.584,0.5010112999854641,0
-7.7076044559715235,-8.883701460583955,-22.184263358731823,54.83190750740623,-17.924457821108245,2.466817315239407,-0.5986977262500532,57.588,0.5050112999854619,0
-10.227867882857025,-2.5504969598749603,-21.665339717626168,52.39363953113677,-11.87396773023233,-0.3591227431374042,-5.716844497408845,57.592,0.5090112999854597,0
-12.001289424551853,2.6292821275088274,-21.453058947229493,50.336645398710104,-7.481822807008485,-2.3363426023426412,-9.693413745086428,57.596,0.5130112999854575,0
-12.762924982881316,5.950338453364438,-22.181157802191212,49.18639331320525,-5.3211253230915645,-3.350968972785804,-11.520554685619762,57.6,0.5170112999854624,0
-12.755645879612635,7.801032784925672,-23.707752528055554,48.728321371492214,-4.598032768518225,-3.7669386988065967,-11.700984281424827,57.604,0.5210112999854601,0
-12.650752501165135,9.719704635263072,-25.70713621156475,48.23059755936986,-3.4076398690889396,-4.425489746041788,-11.759283866772286,57.608,0.5250112999854579,0
-13.250754047570313,13.529785506303824,-28.197215885045523,47.11966951681736,0.10348821373310249,-6.27369431689399,-13.031278987344418,57.612,0.5290112999854628,0
-15.081666712493723,20.11429638432131,-31.421574239946217,45.43867383484831,6.555362983259093,-9.802728755259533,-15.8023634947292,57.616,0.5330112999854606,0
-18.01877220055337,28.60083946897819,-35.20188215292428,43.70001989381405,14.883572493786941,-14.596715071040057,-19.367062432061402,57.62,0.5370112999854584,0
-21.172160756568964,36.51836804628437,-38.479446256398816,42.36255187624201,22.78321528715341,-19.298051946614247,-22.714476250097732,57.624,0.5410112999854633,0
-23.252058152914064,41.019693860400515,-39.69287832977849,41.4783532956789,27.775128753476544,-22.167156287183136,-25.16108313968022,57.628,0.545011299985461,0
-23.36372799362295,40.63350937851727,-37.892467365318666,40.802041452660035,28.455056415085625,-22.084458096428545,-26.549953790892722,57.632,0.5490112999854588,0
-21.74939121034323,36.45768922641461,-33.7062046959579,40.164247974006585,25.363341508753514,-19.41273918589401,-27.11694361697953,57.636,0.5530112999854637,0
-19.822806923497357,31.749369969083173,-29.20919994905182,39.69341954253224,20.859726343193213,-15.992894562862631,-27.27761441939679,57.64,0.5570112999854615,0
-19.268301967808327,29.850915003625516,-26.59426569106943,39.689006758015566,17.781116934124775,-14.032765170469968,-27.425705866418095,57.644,0.5610112999854593,0
-20.781017184330885,31.812487637493792,-26.632842073685634,40.31481351641327,17.576664395259645,-14.5665490436252,-27.72355724752495,57.648,0.5650112999854642,0
-23.484649655588235,35.661616675866235,-28.23751714084639,41.41822053606041,19.335449993169266,-16.71763702763577,-27.975483381025473,57.652,0.569011299985462,0
-25.61605461878062,38.14126180858685,-29.56370411372475,42.61354429662622,20.68896962473896,-18.49694217657599,-27.7670748208706,57.656,0.5730112999854597,0
-25.975430605102787,37.57093044506023,-29.703485310666697,43.525729259890895,19.993366544323955,-18.55187185637795,-26.85923847712757,57.66,0.5770112999854575,0
-24.887057721047235,35.26229828655155,-29.416270849906525,44.00434621973978,17.849384606866824,-17.320990019165013,-25.491710523039313,57.664,0.5810112999854624,0
-23.79033389783357,34.07371649467502,-30.19094519995299,44.193449531069376,16.42435005925208,-16.48744960140662,-24.22278738580325,57.668,0.5850112999854602,0
-23.832828055989218,35.40755865773258,-32.54221203176469,44.44030205331538,17.119760412407757,-17.213826367095436,-23.378754668606312,57.672,0.589011299985458,0
-24.80035470820633,37.63610172468354,-35.263179723278036,45.075927023239636,18.918718699216978,-18.889252779456523,-22.67796023619923,57.676,0.5930112999854629,0
-25.41606965816287,37.698261640922354,-36.480714291862895,46.15557881494201,19.260870848633306,-19.69849369067454,-21.519433663797297,57.68,0.5970112999854607,0
-24.70283089178756,34.411546141656075,-35.538168145967134,47.33111497597492,16.742099324285146,-18.508850965819594,-19.734910438341775,57.684,0.6010112999854584,0
-23.028366783659905,30.06607024090959,-33.77021748997458,48.02703879419921,12.845021612815612,-16.143719151615695,-17.995827222674173,57.688,0.6050112999854633,0
-21.74489150225646,28.354651558243216,-33.2272732807286,47.891103455158564,10.633287050847207,-14.617286001556456,-17.289591279707395,57.692,0.6090112999854611,0
-21.755588635989866,30.439803326102485,-34.501566700015154,47.190628585310854,11.45025538085256,-14.980609744654675,-17.84292221160615,57.696,0.6130112999854589,0
-22.478314180179947,33.20934158252993,-35.90320191036357,46.739619180254,13.038511006364562,-16.002676367914653,-18.603279310690276,57.7,0.6170112999854638,0
-22.341585537334357,31.956916758896565,-35.0652329903443,47.27113492345452,11.441387783578895,-15.249901052695447,-18.01271988555583,57.704,0.6210112999854616,0
-20.411396123703,25.311207146284715,-31.607105809203006,48.70373297855591,5.265910965526407,-11.719456316005896,-15.542892841455041,57.708,0.6250112999854593,0
-17.53584400644411,17.583494393896835,-28.18337918405007,49.977372162409345,-1.8901096788074854,-7.4103721932722,-12.541161493732236,57.712,0.6290112999854642,0
-15.774081115749512,15.747098463382605,-28.56470197984379,49.73764547441493,-3.739094174332341,-6.008129203701609,-11.39873746417023,57.716,0.633011299985462,0
-16.539593122399488,23.349397791135306,-34.24732132830408,47.40039700218474,3.2514405626223284,-9.624075390701476,-13.590245514537282,57.72,0.6370112999854598,0
-19.204842372271294,36.891877166388255,-42.71472170882231,43.714079257790175,16.199875892839554,-16.591334055546234,-18.2949341803781,57.724,0.6410112999854576,0
-21.544338634928362,48.23971006104277,-49.153120864937584,40.30071606996694,27.584824125924687,-22.531131325350096,-22.896659431718316,57.728,0.6450112999854625,0
-21.653033867257324,51.104551364465486,-50.26184212895209,38.52542353228224,31.14920249418584,-23.885045296989436,-24.979256097734666,57.732,0.6490112999854603,0
-19.56088580658528,45.82692255530072,-46.791631792605244,38.63156176689846,26.70818009999286,-20.74564881144839,-24.068498011553054,57.736,0.653011299985458,0
-17.066717783695214,38.290237217459826,-42.56914569769214,39.82435750378873,19.609865974091132,-16.445633639807294,-21.642963574144993,57.74,0.6570112999854629,0
-16.033534303227682,34.31006560280463,-41.005700038559105,41.118924224669165,15.608706709360593,-14.417069752887771,-19.581392442159792,57.744,0.6610112999854607,0
-16.82479971877468,34.93633244268111,-42.361569055370495,42.10782822086434,16.12128861932038,-15.351693093572724,-18.62738741514789,57.748,0.6650112999854585,0
-18.32054961537355,36.879222191410385,-44.18748198233536,42.96932840149464,18.17964755668287,-17.246314420250222,-18.273852131628697,57.752,0.6690112999854634,0
-19.32483533549032,37.06432696247065,-44.260261355822905,43.84414548056599,18.615018476746126,-18.0017102744209,-17.936683954048593,57.756,0.6730112999854612,0
-19.82078657363234,36.34347110234996,-42.99461770908052,44.344835745461076,17.882792656842568,-17.774191639336703,-17.981503582603978,57.76,0.677011299985459,0
-20.787212032674024,38.50943611728884,-42.964256270327525,43.793008244003914,19.533792992288664,-18.674932562766656,-19.409836487813177,57.764,0.6810112999854638,0
-22.846205330562096,45.726391272611814,-46.082889701357416,41.98123849802445,25.94973224937237,-22.20420538135191,-22.52406160673714,57.768,0.6850112999854616,0
-25.246846077040917,55.243325591048595,-51.29614538703498,39.64488216799276,34.89074649957802,-27.153670592394718,-26.08229220214872,57.772,0.6890112999854594,0
-26.344466006506075,61.042555355540365,-55.11955535934791,38.04891296438784,40.68042055383539,-30.260627335217183,-28.047240172692337,57.776,0.6930112999854643,0
-25.174207849181677,59.12938876414124,-54.60060511691596,37.9625442527209,39.19877683268221,-29.125914226401786,-27.38998265704488,57.78,0.6970112999854621,0
-22.54286184680644,51.43259451507324,-49.97676201697174,38.95717240645318,31.923263630887277,-24.5925224685332,-25.200884220102264,57.784,0.7010112999854599,0
-20.478522486256637,44.46784538693557,-44.60470835001117,39.733422321045666,24.991491351191637,-20.225590820488982,-23.883937402416027,57.788,0.7050112999854576,0
-20.480630394332515,43.86524695821731,-42.26227584505242,39.23592448958783,23.980236455807052,-19.296397766396698,-25.04210389783053,57.792,0.7090112999854625,0
-22.21046311964846,49.76742983747096,-44.24578994747627,37.54842720451099,29.20695950337679,-22.05235800606174,-28.014205472172232,57.796,0.7130112999854603,0
-23.867167392524586,57.23401601264319,-48.711799734870596,35.737982966615604,35.875601766729,-25.76390874687211,-30.50472487172046,57.8,0.7170112999854581,0
-23.893563388668657,61.059907509774895,-52.584942296731626,34.80002610742918,38.800362951267935,-27.404199061548912,-30.777591821522773,57.804,0.721011299985463,0
-22.405203168332488,60.38989210273461,-54.137288079687735,34.715092709100105,37.17806743079524,-26.39170869977755,-29.348852294832145,57.808,0.7250112999854608,0
-21.025882780045563,58.938383805296766,-53.99498832026259,34.523162813227806,34.979905174429824,-24.88209452414786,-28.538486168498356,57.812,0.7290112999854585,0
-21.331616094409707,60.91935467227967,-53.958417184306704,33.33395098587781,36.79446234115747,-25.48449685294197,-30.273237867656547,57.816,0.7330112999854634,0
-23.38726458735821,66.77612807533619,-54.995648575101164,31.270051647166653,43.238688137908575,-28.672322950718886,-34.22963174723307,57.82,0.7370112999854612,0
-25.718919628568344,72.77577014265843,-56.330166849056795,29.39309684511225,50.32488264741525,-32.33458045904151,-38.11008269851922,57.824,0.741011299985459,0
-26.694383869058424,74.71428226498931,-56.35886739673169,28.660855222877434,53.3014482695545,-33.81493950867557,-39.80839498295551,57.828,0.7450112999854639,0
-26.003957284305436,72.09512794902213,-54.41639090658104,28.940329197130918,51.23847969936183,-32.45935432651319,-39.39423432811516,57.832,0.7490112999854617,0
-24.904867145283067,68.79808697870038,-51.68803336712244,29.086065357872624,47.99634999007809,-30.287259608768615,-39.00034220547691,57.836,0.7530112999854595,0
-25.063812794219423,69.60988213773842,-50.39763608792904,28.068080651331538,48.67426468873179,-30.192037080947316,-40.69874151470595,57.84,0.7570112999854643,0
-27.075449012382084,75.80698518103208,-51.946009048897245,26.083277480104176,54.84570169847014,-33.3310026393251,-44.383503659001946,57.844,0.7610112999854621,0
-29.946036070407256,83.77417891612669,-55.59595944255269,24.54552487336498,62.94008907357015,-38.034169032855694,-47.68362831724613,57.848,0.7650112999854599,0
-31.911414246358895,87.83788492631444,-58.84869591367029,24.892366845770585,67.17607304635551,-41.13657388284715,-48.00964077556415,57.852,0.7690112999854577,0
-31.804745914169764,84.76945519827257,-59.25354243712111,27.2829094967828,64.33946948056415,-40.500570054880285,-44.83297576944832,57.856,0.7730112999854626,0
-29.81250053514577,76.10213694438951,-56.21612439598437,30.39529766549298,56.1927190864778,-36.55586113703601,-40.10566762819407,57.86,0.7770112999854604,0
-27.09415520071754,66.50127110567693,-51.37907407454587,32.523341364377245,47.61631299700279,-31.675466810991782,-36.492229380801696,57.864,0.7810112999854582,0
-24.740123627442323,59.88245329916129,-47.32061656136807,32.97618051835827,42.425917311362966,-28.124588008389164,-35.09922293168293,57.868,0.785011299985463,0
-23.020691994957684,56.708367978084794,-45.67267791147245,32.52973702148314,40.66192575937699,-26.440707510457216,-34.76595334205754,57.872,0.7890112999854608,0
-21.495418790357107,54.5532914438268,-46.173320392219516,32.58299392341664,39.50241990547356,-25.528611914315473,-33.441354175824856,57.876,0.7930112999854586,0
-19.732066993852516,51.010287262703564,-47.304941530940255,33.85725812664085,36.53285284749802,-24.126139229630414,-30.237250482419196,57.88,0.7970112999854635,0
-17.874592957042793,46.07297329800424,-47.79304135490136,35.83374215884983,32.110475182203274,-22.124961002037583,-26.224595325075565,57.884,0.8010112999854613,0
-16.512513049844564,41.86386642660113,-47.56553444640725,37.36899105174053,28.684006425603233,-20.51595084469595,-23.322865562997087,57.888,0.8050112999854591,0
-15.999148711058028,40.16805529733405,-47.38785515083313,37.82456264466,27.93845061745075,-20.11769324289736,-22.426371454656234,57.892,0.809011299985464,0
-15.902594688285578,40.2588212715996,-47.70024497569551,37.63454947034004,28.66798544946111,-20.419367054259357,-22.539149473160244,57.896,0.8130112999854617,0
-15.172966289977023,39.176412774210384,-47.93946919905104,37.83763104412731,27.516974972046313,-19.753933630401153,-21.66464967095476,57.9,0.8170112999854595,0
-12.961756472693663,34.3058073131465,-47.09586274381895,39.08354917824562,21.981894938709747,-16.74315074162842,-18.570481471960804,57.904,0.8210112999854644,0
-9.407877028156706,25.924765717768434,-44.953681280992996,41.05748712403694,12.918515955064603,-11.710999303786172,-13.828211183934094,57.908,0.8250112999854622,0
-5.674083177034555,17.336945521152675,-42.687215393292824,42.806637689077526,4.2030720007594615,-6.7083537856729185,-9.277002854989336,57.912,0.82901129998546,0
-3.133220476111936,12.332346518436262,-42.053968877649325,43.602178271192635,-0.2561173122310198,-4.005326133971259,-6.48589198966532,57.916,0.8330112999854578,0
-2.3442343178180405,12.127329235040548,-43.82921300824647,43.52924450985294,0.4036982696553204,-4.3003610335015,-5.586463654982771,57.92,0.8370112999854626,0
-2.6646553761993936,14.451428586724832,-46.97727538633006,43.315915520017356,3.462575169399915,-6.193668791255363,-5.394319722357277,57.924,0.8410112999854604,0
-2.814578013286709,15.574890596681309,-49.452022453689594,43.62593779293169,5.007771801905713,-7.383284248574369,-4.5587154759679995,57.928,0.8450112999854582,0
-1.8942888924396617,13.472412192003349,-49.980400852462395,44.48152325424948,3.114552370338626,-6.535514540207768,-2.6582835314815996,57.932,0.8490112999854631,0
0.01044335899500654,9.340136980834608,-49.192387242985944,45.30112508405679,-0.8918913625773452,-4.218721559212231,-0.34870525911085504,57.936,0.8530112999854609,0
2.0954181478532985,6.215841360726079,-49.02061499820717,45.45940867870073,-3.9923945915904326,-2.171302332559197,1.413643735076713,57.94,0.8570112999854587,0
3.641589056172029,6.090050231296659,-50.90822930669039,44.8379298162611,-4.24854618744591,-1.6759929445131316,2.2631993349196606,57.944,0.8610112999854636,0
4.578064155971768,8.206829218968078,-54.49027601365137,43.89044321681865,-2.26271614758367,-2.549134553785141,2.626790123261703,57.948,0.8650112999854613,0
5.335594434435441,10.040920910560558,-57.96055036771873,43.201017293701376,-0.17801077516148975,-3.5782757265148715,3.1393042306977454,57.952,0.8690112999854591,0
6.245698983535311,9.877900445056486,-59.73822301068895,42.95144189564824,0.5981849179125054,-3.842812139687847,3.907808908224287,57.956,0.873011299985464,0
7.153905996588911,8.457810665871824,-59.84675133485913,42.77146012263182,0.6843167507379112,-3.577656188603207,4.35691398763187,57.96,0.8770112999854618,0
7.6264372383656625,8.143248164395997,-59.747921739924315,42.09517196959412,1.8776471313180199,-3.792781373744315,3.7981986099948477,57.964,0.8810112999854596,0
7.470112760852224,10.520033262966898,-60.87339195396893,40.70300890435113,5.159886935556351,-5.1380115623487725,2.158361652591113,57.968,0.8850112999854645,0
6.958942492055861,14.821460282400242,-63.291769077651594,38.97364704919015,9.607262374490293,-7.21516736887962,0.14562424839467888,57.972,0.8890112999854622,0
6.506755965029934,18.658865125450344,-65.72172245748497,37.63474108020865,13.244869334652714,-9.006842135088847,-1.3166669127677881,57.976,0.89301129998546,0
6.16112509236777,20.206371680205525,-66.75279114998585,37.24719906285844,14.875346343714504,-9.903690137298806,-1.8335608918615474,57.98,0.8970112999854578,0
5.521128561959357,19.597086364283367,-66.0260901623929,37.88004083128564,14.95789941018625,-10.209734779032773,-1.7203302262889135,57.984,0.9010112999854627,0
4.233181197524954,18.217200381445906,-64.29658597085813,39.22561281371477,14.674067254792408,-10.599145428911521,-1.4543302477083548,57.988,0.9050112999854605,0
2.5607345720935224,16.821763715595864,-62.47624953662467,40.968639061720914,14.273603168712715,-11.146679690456022,-1.0018112910422918,57.992,0.9090112999854583,0
1.3730804244238801,14.59763439280293,-60.71741419617485,42.99064241458255,12.588740307500007,-11.036206760720452,0.20352341758599013,57.996,0.9130112999854632,0
1.4582725197862412,10.220850685557416,-58.42944547198163,45.20636573506789,8.366960867496454,-9.344226218200687,2.521221882274362,58.0,0.9170112999854609,0
2.7806525548565855,3.752697251551122,-55.10446198302528,47.27339896525856,2.0658422184202965,-6.130570146285223,5.362441139223963,58.004,0.9210112999854587,0
4.4229453224083075,-2.759013678452028,-51.04438862428048,48.60605215676521,-3.889395045193969,-2.678794324644592,7.342594193397591,58.008,0.9250112999854636,0
5.317508157716736,-6.789777636511793,-47.27563422160926,48.812954021950006,-6.8957163664026995,-0.5529782391524497,7.38364428400948,58.012,0.9290112999854614,0
5.104209032960722,-7.5309087749038515,-44.80202402552579,48.16070109681992,-6.375407097224883,-0.3409595773597749,5.7843893452336905,58.016,0.9330112999854592,0
4.330530322894866,-6.55119825044397,-43.94098759222508,47.51754620468165,-4.213983032855254,-1.2842206371795997,4.14231298512744,58.02,0.9370112999854641,0
3.8609908760258067,-6.264323423529768,-44.264245280220834,47.69205649524142,-2.9742656059583545,-2.0954558965733865,4.04524283501516,58.024,0.9410112999854618,0
4.126048900309401,-7.812225020408628,-44.98763645548991,48.73448763001775,-3.6934397172310405,-2.069433977943479,5.702198640745939,58.028,0.9450112999854596,0
4.9420089757154715,-10.54419230901662,-45.312414483744014,49.91086773139218,-5.4948352645165475,-1.3571377914031708,7.8557031415727305,58.032,0.9490112999854574,0
5.987366369612072,-13.490002532831435,-44.519520072465156,50.44979146031712,-7.299723791556047,-0.2453344794352596,9.11742304635874,58.036,0.9530112999854623,0
7.317900173607166,-16.987883223217807,-42.08478684677279,50.35604284667967,-9.606373840690281,1.5853374492652454,9.419763441128836,58.04,0.9570112999854601,0
9.288733759820671,-22.403882057695615,-38.06831856794783,50.43362660331601,-14.134918599404767,4.811884203715379,10.072874658196174,58.044,0.9610112999854579,0
11.943449580068707,-30.0342263506615,-33.51293422404616,51.41283927093869,-21.45925022845832,9.369992878418769,12.280129073739833,58.048,0.9650112999854628,0
14.586687752541874,-37.55409382699836,-30.23236265659556,53.031823989189505,-29.191683623080444,13.763584013889188,15.596044351053825,58.052,0.9690112999854605,0
16.147486741668967,-41.18811228070664,-29.762904825215784,54.07936880769917,-33.131745856019506,15.840265720128858,18.015641692444945,58.056,0.9730112999854583,0
16.12660266279584,-39.04739796401395,-32.13920738735364,53.50326901092827,-30.889841142657286,14.623685460110446,17.822889360190338,58.06,0.9770112999854632,0
15.226953330876588,-33.51907025001638,-35.60187994497037,51.5689221389893,-24.672414041326597,11.51913548264259,15.478353283804895,58.064,0.981011299985461,0
