Fz,FC3,FC5,F3,FC4,FCz,Cz,Time,t_rel,idx
13.741918533771495,-17.65005676154023,-44.14331258955628,48.38750373982102,-23.24786655993117,10.134433204303637,12.777380433131544,70.74,-1.9982817000616393,1
15.056005411969315,-23.119394953091703,-42.11692757716142,50.507268586379325,-29.43711524014817,13.101829994969172,16.008333777083497,70.744,-1.9942817000616344,1
17.204034099847615,-29.629308466514193,-40.80861064369382,52.845982451019594,-36.4923625066886,16.56293017068287,20.31733489534652,70.748,-1.9902817000616295,1
19.38660537428248,-34.44363509402579,-40.277546255639734,54.09002553570512,-41.4537334536091,19.255200764980987,23.44308312830602,70.752,-1.9862817000616388,1
20.598940656248846,-35.78599554102287,-40.02696192938367,53.670755026121746,-42.484744402852925,20.248070946309166,23.77993524457972,70.756,-1.982281700061634,1
20.291633064864037,-33.887983050584644,-39.62098707881852,52.16931821388967,-39.92543232756641,19.434583277181762,21.538867901034124,70.76,-1.978281700061629,1
18.694336056544135,-30.339170235431244,-39.18296044400181,50.6992460301004,-35.6270991629005,17.420926698893286,18.334721056795733,70.764,-1.9742817000616384,1
16.638112316824905,-26.683187510611813,-39.2590962455981,49.92366889643329,-31.473305689523805,15.07496813190204,15.778840100573477,70.768,-1.9702817000616335,1
15.065851662134063,-23.661239428567256,-40.18643985466816,49.649718527456535,-28.456230892081454,13.148264933813016,14.440075051913254,70.772,-1.9662817000616286,1
14.558812175955001,-21.50827199104489,-41.62650211673253,49.28936175623033,-26.776491239834222,12.11714077972029,13.945950635706026,70.776,-1.962281700061638,1
15.11172077224297,-20.498262741622295,-42.78062797801591,48.59735089334091,-26.3200127387961,12.10378963937585,13.786042153474575,70.78,-1.958281700061633,1
16.212053800508208,-20.83801102354634,-43.12739926103795,47.888778052237654,-26.732882674289712,12.77382107242942,13.823640033698714,70.784,-1.9542817000616282,1
17.149178869791637,-22.018033507868644,-42.98397150716503,47.562647913624346,-27.137715610645632,13.351877553862295,14.076016288401032,70.788,-1.9502817000616375,1
17.40714697256378,-22.599878438560904,-43.32230573691125,47.5180501500996,-26.216332028572808,12.964589265924397,14.248729815457173,70.792,-1.9462817000616326,1
16.952838631195178,-21.092221484131265,-44.94797986216816,47.15057814842006,-23.061566570564555,11.236935788520933,13.761415348727816,70.796,-1.9422817000616277,1
16.24831736488102,-17.34453884250276,-47.737507540233686,45.980108984064586,-18.214902305524948,8.709678471268518,12.35884386804727,70.8,-1.938281700061637,1
15.949846628014045,-13.108139584642883,-50.59253434706256,44.27096961843619,-13.802870693448405,6.64717915547993,10.635549223223702,70.804,-1.9342817000616321,1
16.47093479644534,-11.012091648038338,-52.15619467636738,42.97803037493044,-12.338187718450273,6.26497574843669,9.792533123043508,70.808,-1.9302817000616272,1
17.719265627021045,-12.67308483573304,-51.70818664129331,43.009513738569446,-14.999200527505797,7.931262139307314,10.720430499634338,70.812,-1.9262817000616366,1
19.21135950852826,-17.54027094259357,-49.550938653089545,44.47017604829676,-20.79439762019694,10.96883526183699,13.23523639721803,70.816,-1.9222817000616317,1
20.463902671637044,-23.44322154718148,-46.66769224265143,46.570975679534044,-27.308001724492183,14.19140307666907,16.192634086484933,70.82,-1.918281700061641,1
21.312698109571073,-28.25163060575614,-44.02815498580029,48.261081239336896,-32.34776242784435,16.686677931717607,18.3670907387752,70.824,-1.9142817000616361,1
21.872289332481447,-31.10536768646157,-42.12512128708324,48.989241303450825,-35.08995828453285,18.190325991175047,19.268590630970348,70.828,-1.9102817000616312,1
22.20152877898844,-32.2579890689397,-41.01618254688131,48.94913876739239,-35.916607062697835,18.83651330538026,19.20359782675776,70.832,-1.9062817000616405,1
22.057122949442277,-32.051550294948356,-40.65230470454969,48.70257007111049,-35.42834944635864,18.68372400434278,18.68878742096114,70.836,-1.9022817000616357,1
21.059159775701126,-30.3509494204101,-41.0663049898164,48.63307209266598,-33.79292961000217,17.586103604601437,17.93184854726013,70.84,-1.8982817000616308,1
19.167880034578797,-27.076447911972455,-42.235951422777156,48.73279974220365,-31.019715542478384,15.541416149141885,16.89001895130366,70.844,-1.89428170006164,1
16.984268424554305,-23.070808702056986,-43.85139350729016,48.79984359719537,-27.61298342040683,13.062296849805126,15.688776758199175,70.848,-1.8902817000616352,1
15.467773142508486,-20.01460750183251,-45.35640478488936,48.71822769364695,-24.6141265279388,11.028471158735332,14.770666819769927,70.852,-1.8862817000616303,1
15.20748708697391,-19.128174684422913,-46.32899191102106,48.51091073687295,-22.79171513874403,10.025157853689933,14.505326056651215,70.856,-1.8822817000616396,1
15.884902516809698,-19.908982030898127,-46.829075522845116,48.19981782897194,-21.845568674305095,9.803181423840952,14.695724458425767,70.86,-1.8782817000616348,1
16.48654228327511,-20.415799176059064,-47.273788997250925,47.73970236143317,-20.662198011921515,9.496898589305369,14.628642951217865,70.864,-1.8742817000616299,1
16.155303292710652,-19.12014261334711,-47.86480728114459,47.14942231586059,-18.565147955825353,8.502783811485147,13.742588430260673,70.868,-1.8702817000616392,1
14.920896506986638,-16.545794103649758,-48.154847024253854,46.64462723906531,-16.257563004068796,7.158968122052808,12.233712263867664,70.872,-1.8662817000616343,1
13.595235805644673,-14.823189242585268,-47.351958104837074,46.50044264202707,-15.216703195204591,6.428118631084874,10.868053463870305,70.876,-1.8622817000616294,1
12.896005691778429,-15.295692375356731,-45.2571634878108,46.68278912579333,-15.860205725499181,6.755291590075597,10.078975181019375,70.88,-1.8582817000616387,1
12.652835551122,-16.53113814657199,-42.93893282675338,46.64737544322188,-16.35593569532367,7.24010805588899,9.285687618416182,70.884,-1.8542817000616338,1
11.939375620826441,-15.091485250121096,-42.252135504771786,45.658344132950475,-13.708927927509386,6.160506285309631,7.294322643315739,70.888,-1.850281700061629,1
10.086812969276009,-8.83299628991155,-44.3149367167542,43.477998429880905,-6.618841361970211,2.624153830659902,3.5778091388191693,70.892,-1.8462817000616383,1
7.598626983994061,0.2692598795584939,-48.21034561485668,40.81033897683503,2.4685847584454885,-2.148018981304443,-0.7884460026719431,70.896,-1.8422817000616334,1
5.968477613586286,6.826853574248187,-51.27659308416581,38.981614968400315,8.446213087154353,-5.333202538688802,-3.613363620534518,70.9,-1.8382817000616285,1
6.4178143274930415,6.214018590127448,-51.066357503365154,39.00487946442768,7.3836472948816265,-4.681157660786576,-3.2728445127780557,70.904,-1.8342817000616378,1
8.679351772357128,-1.3128434013692174,-47.444987990279785,40.791339575449385,-0.03674701742148393,-0.547008840616016,-0.12910409811999,70.908,-1.830281700061633,1
11.035923611731006,-10.432698667488841,-42.925753507222446,43.21045605649869,-8.68850094256889,4.136692335593775,3.663881113456716,70.912,-1.826281700061628,1
11.707337326736946,-14.99669947048179,-40.74532003044215,44.96961558896297,-12.944325686757955,6.13133324688971,5.878059025092283,70.916,-1.8222817000616374,1
10.381801897702974,-13.07446685138804,-42.20504597280286,45.55684050038406,-11.12245229655977,4.523996635919736,5.939326086743908,70.92,-1.8182817000616325,1
8.480118011995849,-8.337364121119705,-45.56459199532102,45.45841049115263,-6.583808483466793,1.4085697259800856,5.138666370778993,70.924,-1.8142817000616276,1
7.879344792913937,-6.610882173756015,-47.472549384182614,45.55130811342803,-4.585766456953496,0.011019357151743061,5.22752575139843,70.928,-1.810281700061637,1
9.25533094427432,-10.825493623442565,-45.686279059974105,46.30863066310118,-7.796844642971092,1.9524038325414808,6.792251886470806,70.932,-1.806281700061632,1
11.55853828772346,-18.92352718146872,-40.72423798952276,47.54614734531887,-14.462460160582248,6.081820453545452,8.92371924498598,70.936,-1.8022817000616271,1
13.064784046569093,-26.338522749467426,-35.129900438285254,48.83827335824004,-20.60449448875477,9.800628901193212,10.369231370505123,70.94,-1.7982817000616365,1
12.970701581250328,-30.365885888448467,-31.20530069619154,50.07275073645176,-23.882047433046136,11.494336146628973,10.915445553355088,70.944,-1.7942817000616316,1
12.04091205043724,-32.21644964655697,-29.342750546085473,51.544143659738126,-25.41120029058589,11.776152985659856,11.60919178739314,70.948,-1.790281700061641,1
11.772096320961237,-35.08476303549881,-28.32388426400422,53.52523919912903,-28.062302806857296,12.521740552049849,13.651874034220217,70.952,-1.786281700061636,1
12.95142684226889,-40.48777913275041,-27.010706444518842,55.810424429532986,-33.19884735308855,14.814218453182598,17.121263205373346,70.956,-1.7822817000616311,1
14.98720730812662,-46.57894966714434,-25.632852271855246,57.73141836886955,-39.1281561212749,17.8418147882929,20.77951759498543,70.96,-1.7782817000616404,1
16.558540119279805,-49.9208019087108,-25.462894469253705,58.64035211926581,-42.625161867641935,19.71249078896854,23.0974752180923,70.964,-1.7742817000616355,1
16.857211633267127,-48.764118068968834,-27.34168089111736,58.39326724513359,-41.87269058704231,19.262752689621017,23.465257979106788,70.968,-1.7702817000616307,1
16.231118808623894,-44.66249089243883,-30.57343387766938,57.411740478476766,-38.02739856290221,17.113685009838722,22.50677903607105,70.972,-1.76628170006164,1
15.747003175808887,-41.18312161485514,-33.214830871142524,56.350699362920004,-34.23710426846477,15.135060935426177,21.40229328030739,70.976,-1.762281700061635,1
16.25555755529798,-41.30154367884203,-33.38987650811863,55.748243671466284,-33.39398061355417,15.036358984977596,21.04524058877299,70.98,-1.7582817000616302,1
17.882016381646178,-45.90980639802207,-30.416153003254028,55.93356444885289,-36.70971932816681,17.42205249723015,21.798045401713697,70.984,-1.7542817000616395,1
20.247136643862216,-54.20852153683224,-24.94457633044746,57.0974754835924,-43.846029895123785,21.87960357817793,23.774912056770923,70.988,-1.7502817000616346,1
22.923443945511377,-64.72252986208916,-18.359855464801786,59.24954756236676,-53.61707613360968,27.536794376862822,26.989675575759662,70.992,-1.7462817000616297,1
25.53090022226995,-75.52966938774156,-12.200923456662935,62.00885450104569,-64.1318084036897,33.293833517591956,31.028813007186596,70.996,-1.742281700061639,1
27.500672810035823,-83.92177585234352,-7.932838394558644,64.51948577209839,-72.59555285247862,37.715025945414666,34.71498257183191,71.0,-1.7382817000616342,1
28.076184313835988,-86.93497907409744,-6.727856217186,65.79431278711962,-75.97572909911884,39.274137936981454,36.49392935246519,71.004,-1.7342817000616293,1
26.880862725621885,-83.31925817968542,-8.895730538516728,65.377288733626,-72.93245679228889,37.31815383716431,35.57114021407884,71.008,-1.7302817000616386,1
24.596293271892225,-75.4237274404568,-13.277754834379527,63.78819743505356,-65.5837873664062,33.05211773845835,32.8486611958384,71.012,-1.7262817000616337,1
22.896487893016936,-68.67557562424173,-17.41092616191949,62.270735898979545,-59.01600008301615,29.33863442185375,30.596643655327146,71.016,-1.7222817000616288,1
23.359599317549193,-68.16447251756614,-18.81672544622653,61.93601043071461,-58.11919228974891,28.95919708225259,30.845583423025197,71.02,-1.7182817000616382,1
26.1451039205584,-74.76197686481683,-16.66827095296585,62.96233661520968,-63.95293028950341,32.519083292981335,33.75665427853668,71.024,-1.7142817000616333,1
29.66299375188812,-84.18656000998425,-12.47347613982011,64.51332888531584,-72.75096470625138,37.81389292100268,37.420785297849086,71.028,-1.7102817000616284,1
31.693226571255316,-90.13791968648552,-9.060343851942603,65.43213943283646,-78.65766127595457,41.38543833561684,39.345120474674076,71.032,-1.7062817000616377,1
31.084615481246267,-89.01290629722266,-8.586451885734462,65.10892896141563,-78.04240003863268,41.07161171251134,38.37660206641655,71.036,-1.7022817000616328,1
28.564983535633015,-82.2286923134853,-11.172850406389612,63.809167326130975,-71.81895830725824,37.425239193023316,35.421110972345836,71.04,-1.698281700061628,1
25.970295539012014,-74.34295130591615,-15.204043679996104,62.27383126227515,-64.01642408861777,32.887827654156524,32.43146461908638,71.044,-1.6942817000616373,1
24.647334920909913,-68.97038123427997,-18.845097743445127,61.048562100189386,-58.212470918534606,29.62884559688677,30.703207278273656,71.048,-1.6902817000616324,1
24.511507144005282,-66.32087757288271,-21.322248966167745,60.16915280667896,-55.1637036431314,28.07193174186022,30.054238489637417,71.052,-1.6862817000616275,1
24.54541117084613,-64.33979909642989,-22.92423967789445,59.409874217567065,-53.49245571939647,27.29461618664991,29.50659291865772,71.056,-1.6822817000616368,1
24.100907700504777,-61.82140798334767,-24.03234264599714,58.737003242875424,-52.18745186153312,26.589309017381872,28.613982530115848,71.06,-1.678281700061632,1
23.626368158008344,-60.073310792846016,-24.398453664556413,58.452609474491034,-52.046272428882965,26.41155861325582,28.02750064053018,71.064,-1.6742817000616412,1
24.096523663897113,-61.420745609334105,-23.480932758687487,58.880302816596156,-54.55640362911835,27.729636575561525,28.75161894108513,71.068,-1.6702817000616363,1
25.786286044079745,-66.2197219633092,-21.406541289952578,59.936557260050385,-59.55961152226484,30.557373287626426,30.90565818377007,71.072,-1.6662817000616315,1
27.712910812144077,-71.64150766078433,-19.381983749618716,61.053159821887895,-64.40547707226877,33.358472129523776,33.30442571911604,71.076,-1.6622817000616408,1
28.387487170052335,-73.70880426308237,-18.920020923089282,61.564728440746876,-65.7852044864972,34.12398976229561,34.337824299574024,71.08,-1.6582817000616359,1
27.169995578054426,-70.73970154282853,-20.514807601822504,61.214097195334794,-62.615103646620035,32.16175076420725,33.3237692536746,71.084,-1.654281700061631,1
24.883314143220247,-64.85571651194938,-23.072945555571494,60.311051432177344,-57.11710587737395,28.816890017725886,31.03451235177134,71.088,-1.6502817000616403,1
23.06042874812648,-60.04421928301602,-24.75196779982462,59.40779762106871,-52.90883056235219,26.33210096282531,28.904690313172356,71.092,-1.6462817000616354,1
22.552310027821424,-58.60491596714099,-24.50036786704039,58.801682619310476,-51.83623367748672,25.883029723173006,27.704495141363196,71.096,-1.6422817000616305,1
22.850792172841285,-59.34818390616075,-22.886218998175995,58.31974538564788,-52.54479853576016,26.656713757492277,26.951950124115477,71.1,-1.6382817000616399,1
22.756595777509542,-59.1612445065393,-21.462842611835104,57.56202161909522,-52.11540003889533,26.83292721099495,25.587942549670025,71.104,-1.634281700061635,1
21.681277003904718,-56.28187703347101,-21.30926315633359,56.35587225480475,-49.1210565128002,25.47131096494706,23.20373647894828,71.108,-1.63028170006163,1
20.259239609211075,-52.04046143514137,-22.142130185174103,54.9939810177034,-45.10640827471097,23.439059563000825,20.596719705111145,71.112,-1.6262817000616394,1
19.664743828915217,-49.43631853357553,-22.798674922257096,54.040466014382815,-43.06503435078623,22.484847869277775,19.109970094043064,71.116,-1.6222817000616345,1
20.342038368950952,-50.04665978807721,-22.546801455873098,53.880485494744015,-44.424028041773596,23.39980292493391,19.395162497095026,71.12,-1.6182817000616296,1
21.44123123143021,-52.334245794245,-21.90779692200074,54.40413849694769,-47.46894323122916,25.090059968079053,20.775556251017928,71.124,-1.614281700061639,1
21.533225936682005,-52.95959620193982,-22.201579543340298,55.081929125733524,-48.70888857501414,25.467855239451918,21.787054018426847,71.128,-1.610281700061634,1
19.894525620258996,-49.75146238156411,-24.287759883101433,55.34961740398956,-45.8505926653878,23.286955959022553,21.358715946782247,71.132,-1.6062817000616292,1
17.101420884668105,-43.47055924326493,-27.731127041899178,54.97978908225583,-39.59093939092922,19.16678471676655,19.544630992402865,71.136,-1.6022817000616385,1
14.391858036398327,-36.82038258929876,-31.165817711613816,54.16533756664367,-32.69496680820041,14.899206210841315,17.224765295229663,71.14,-1.5982817000616336,1
12.493459141889106,-31.888497961361775,-33.46340514949016,53.30160954794934,-27.462985724637445,11.818591529370936,15.201228616280009,71.144,-1.5942817000616287,1
11.115955315607593,-28.60428377115623,-34.581251648877895,52.68590480012527,-24.09504770999162,9.85511290727466,13.623610107018232,71.148,-1.590281700061638,1
9.575047449946055,-25.574575954626546,-35.345199591554035,52.369594333767196,-21.35077955501161,8.099192233266233,12.226721084212697,71.152,-1.5862817000616332,1
7.82220024115534,-22.168021489526275,-36.47321096843848,52.22297713776273,-18.522167703914597,6.1440369610861145,10.974185821875208,71.156,-1.5822817000616283,1
6.734280504352691,-19.521731415255204,-37.82826019528407,52.090040734721235,-16.514697776958876,4.735390204187374,10.304977944236873,71.16,-1.5782817000616376,1
7.300305710748842,-19.393685982462486,-38.58457376829771,51.88036175258064,-16.9197756184903,5.048252512961741,10.66911539295927,71.164,-1.5742817000616327,1
9.518975396133634,-22.112881236507317,-38.071756071754166,51.5613799540714,-20.13553083333489,7.368553143892585,11.871259647498794,71.168,-1.5702817000616278,1
12.169528158618228,-25.855918816078347,-36.44916490178498,51.13070762098651,-24.585239696431156,10.575835351826731,13.014252282863056,71.172,-1.5662817000616371,1
13.76441550880466,-28.111305986603764,-34.603361206320386,50.641070155399674,-27.914485176345316,12.992704112737878,13.230962592327272,71.176,-1.5622817000616323,1
13.796851302682592,-27.918682932662367,-33.43729296477789,50.245909254601,-28.987837822856502,13.772467872213578,12.52858529079962,71.18,-1.5582817000616274,1
13.079968383665337,-26.64702733992875,-33.24139074277348,50.1689236840438,-28.69949217782951,13.472732373390535,11.86628581943209,71.184,-1.5542817000616367,1
12.866720911565823,-26.54857474625921,-33.6506891712027,50.56687049227375,-28.85675243372361,13.316254233175828,12.306170714170158,71.188,-1.5502817000616318,1
13.639320819252449,-28.567960048690463,-34.07938088376293,51.387283173608715,-30.352776895144785,13.957964434580969,14.015549400156061,71.192,-1.5462817000616411,1
14.752931092446612,-31.594471162575083,-34.1359144327484,52.36755140024255,-32.484304838761894,15.00408125179576,16.09012668960049,71.196,-1.5422817000616362,1
15.226439115679417,-33.81673545047367,-33.689499238453465,53.20791045892177,-33.986775989485324,15.673499261388644,17.385161842422644,71.2,-1.5382817000616313,1
14.818213933338463,-34.684522010020245,-32.70449558505867,53.78228272595606,-34.56292199917185,15.795475276359335,17.555967658596927,71.204,-1.5342817000616407,1
14.280977375688048,-35.432191755185606,-31.162482984389364,54.20514697352788,-35.260786819727976,16.053972763790465,17.315364446296584,71.208,-1.5302817000616358,1
14.576247717701575,-37.699387840625256,-29.17305806999664,54.70738720797917,-37.38388424006749,17.26452334629793,17.70817187871071,71.212,-1.5262817000616309,1
15.902616135118718,-41.79104556170922,-27.05574830653352,55.45348391173041,-41.196681871011776,19.520397793012087,19.166977899393302,71.216,-1.5222817000616402,1
17.544317382133343,-46.431955716560594,-25.17215664932264,56.46769939948863,-45.816730952866266,22.14060380238133,21.268222734746193,71.22,-1.5182817000616353,1
18.651964112941197,-50.20179905463094,-23.61315837648734,57.695783754582465,-50.28758973355842,24.42858297535312,23.326216321799908,71.224,-1.5142817000616304,1
19.091760875322347,-53.01433036228576,-22.094800843216404,59.07698070073629,-54.50732967877926,26.352529203882575,25.095190104340233,71.228,-1.5102817000616398,1
19.46643409679446,-56.001469618252806,-20.246010241307687,60.517355826318536,-58.9289784231757,28.379943524305702,26.812724835317514,71.232,-1.5062817000616349,1
20.326365070586373,-59.96366685972831,-18.030715974800945,61.81862275538626,-63.455408706737536,30.689231613005546,28.615572102288624,71.236,-1.50228170006163,1
21.456723589833274,-64.16371137642928,-15.844141422707063,62.71924642009897,-66.97207630931906,32.71493355277076,30.089025545752392,71.24,-1.4982817000616393,1
22.022495834843262,-66.87586127385634,-14.143774778974436,63.09371832613682,-68.26771633433933,33.61565303681736,30.555485189372654,71.244,-1.4942817000616344,1
21.40974688839601,-67.13443108989085,-13.00987109648235,63.13469701172049,-67.41569010494057,33.17853471787071,29.83701367332653,71.248,-1.4902817000616295,1
19.84790292640847,-65.72921886317945,-12.16513732236905,63.27877957799363,-65.96150702595185,32.10987030826867,28.6193103988296,71.252,-1.4862817000616388,1
18.145808100610523,-64.264914031341,-11.494372131106074,63.85584050919237,-65.44783838886433,31.294553137558353,27.910922803950154,71.256,-1.482281700061634,1
16.84498452286572,-63.25742146131465,-11.478668597410879,64.7474900069392,-65.70959940971213,30.783939004528833,28.069275934103928,71.26,-1.478281700061629,1
15.726727157151384,-61.41336784857246,-12.923395452540891,65.39551216843903,-64.84914643312896,29.672390027040485,28.391280381611427,71.264,-1.4742817000616384,1
14.215132237401482,-57.05336102763486,-16.066915923608633,65.20109754125751,-61.153420456852764,27.12278515960815,27.734682469829117,71.268,-1.4702817000616335,1
12.224655320247127,-50.288335388220005,-19.920997906109367,63.979516861887284,-55.094449212367024,23.516161848290032,25.58344847627195,71.272,-1.4662817000616286,1
10.49195067117714,-43.59048170603703,-22.649736738877724,62.073284957495126,-49.28549945688675,20.446805834844174,22.513676438285085,71.276,-1.462281700061638,1
9.970865942858865,-39.959296229776754,-22.852214975984815,60.05848118808574,-46.28759868744614,19.4249324089819,19.64483035328121,71.28,-1.458281700061633,1
10.884400922566265,-40.38994727349252,-20.663883291737108,58.36232949149,-46.414658408418546,20.52609921156627,17.695659348025643,71.284,-1.4542817000616282,1
12.4243170313425,-43.13753493049101,-17.64197807652968,57.14271870893471,-47.7405823598016,22.354342734030876,16.598716892514222,71.288,-1.4502817000616375,1
13.432722671104049,-45.45613171648269,-15.49862151215509,56.44279404457067,-48.22600526874371,23.367667334555076,15.93757444715168,71.292,-1.4462817000616326,1
13.385681246671995,-45.980925988181845,-14.839419487091504,56.32194097356846,-47.66287857897198,23.214092464055135,15.561509369949732,71.296,-1.4422817000616277,1
12.704384025745073,-45.38143673001116,-15.04071427837819,56.74434618434331,-47.39354220226708,22.74071361395719,15.626249386610867,71.3,-1.438281700061637,1
12.146656860512017,-44.88403370942427,-15.253168698186155,57.38256285787303,-48.256527991745585,22.77133917501347,16.093171505957518,71.304,-1.4342817000616321,1
11.989034565044113,-44.55945714436472,-15.415208308859864,57.695907317718266,-49.220989586754044,23.065630255684116,16.44508290153211,71.308,-1.4302817000616272,1
11.874984026930116,-43.37788842701231,-16.23257304601278,57.37113693747156,-48.42580184203945,22.639400603831167,16.15074174683171,71.312,-1.4262817000616366,1
11.427467418983145,-40.87673882630688,-18.23499616716892,56.72774182712983,-45.57522778067677,21.081330299743055,15.450423228296554,71.316,-1.4222817000616317,1
10.872930526263897,-38.32900466645156,-21.01515615256477,56.574581344270115,-42.91307823718006,19.33705612596852,15.472671059693855,71.32,-1.418281700061641,1
10.928994324151473,-37.80154430215764,-23.52217616774966,57.496835439375765,-43.351418590710324,18.960292463281277,17.289016833809114,71.324,-1.4142817000616361,1
12.04721323506158,-39.94201513156638,-25.090051654424435,59.19859422048506,-47.451280188582984,20.52041960761114,20.71711991141602,71.328,-1.4102817000616312,1
13.837392472995836,-42.95596274990954,-26.05340168746473,60.60341212465648,-52.44117992304018,22.861043690742278,24.14869607201986,71.332,-1.4062817000616405,1
15.31713230920079,-44.08874919970284,-27.266951609592002,60.729090098812534,-54.51846030202614,24.070990520465497,25.75694818284217,71.336,-1.4022817000616357,1
15.735769198177872,-42.16739758913837,-29.091011700010622,59.54342217428027,-52.22522977529331,23.206024105963483,24.99842358602069,71.34,-1.3982817000616308,1
15.109766527586327,-38.47094966645316,-31.023239469115648,57.94283786860989,-47.44420359684339,20.969257138068023,22.916531198147958,71.344,-1.39428170006164,1
13.954321825450986,-34.96560290188552,-32.41214583288457,56.836146442708866,-43.018056240524785,18.677323374739593,20.928013332395448,71.348,-1.3902817000616352,1
12.607786596630673,-31.929616667024302,-33.3903601802789,56.2520370691237,-39.64338751303322,16.730133086966184,19.37340760761589,71.352,-1.3862817000616303,1
10.987677976247674,-27.829792675357403,-34.81919356422618,55.423320462870315,-35.55166182550476,14.373404441258238,17.416245184712142,71.356,-1.3822817000616396,1
9.074078828376633,-21.837659008352787,-37.13762746164571,53.81092195062106,-29.4444847249777,11.085063979213567,14.449706436764952,71.36,-1.3782817000616348,1
7.490745408389531,-16.15178355394685,-39.392682685937054,51.98914072812744,-23.35565149928745,7.970413743562367,11.449817859092043,71.364,-1.3742817000616299,1
7.323149039686794,-15.003220616324795,-39.77183325404497,51.3415905937471,-21.786690049912856,7.316400906271878,10.580603380576875,71.368,-1.3702817000616392,1
9.12068805772109,-20.585851918898907,-37.41731055329517,52.695337964314724,-27.30151894360384,10.370484521005137,13.11817087275696,71.372,-1.3662817000616343,1
12.046858511112593,-29.82739959324892,-33.73702633436881,55.20788546529192,-36.907496050715125,15.528962699618102,17.68821530231026,71.376,-1.3622817000616294,1
14.21156345422373,-35.81082767274136,-31.624653776705262,56.75660799970536,-43.44492981801513,19.082583029176067,20.829656784356608,71.38,-1.3582817000616387,1
14.131928815327859,-33.36318172248418,-32.99457117405088,55.69591293055403,-41.493992370514405,18.25638399999857,19.767519521169024,71.384,-1.3542817000616338,1
12.066002228855961,-23.922648955171304,-36.88530786815804,52.43948904917169,-32.52678906198185,13.830445105358882,14.998809501924658,71.388,-1.350281700061629,1
9.915372266281256,-14.876006888936564,-40.096050511059936,49.32106910511167,-24.17143374563511,9.719282159747106,10.187767614491598,71.392,-1.3462817000616383,1
9.656569370086764,-13.468422138391821,-39.98292120984672,48.70489908530934,-23.77235916774926,9.642855885783266,9.219378174808456,71.396,-1.3422817000616334,1
11.654700007758887,-20.56736116986624,-36.887787015057704,50.968481636795154,-31.923732962109394,13.835601163533777,12.920098338945534,71.4,-1.3382817000616285,1
14.366268966892488,-29.930897885208214,-33.890299111915816,54.17581846057255,-41.90689225796716,18.82003666447578,18.365965163150392,71.404,-1.3342817000616378,1
15.67288567562303,-33.660602200743604,-34.055621686393664,55.758895539005614,-45.57223322898178,20.45730368449435,21.399372216996074,71.408,-1.330281700061633,1
14.610740384983993,-28.87456384612731,-37.717792981186356,54.7051326642705,-40.27567553040216,17.46224212314033,20.089917185321006,71.412,-1.326281700061628,1
11.972325309164637,-19.656114041640414,-42.285154780981905,52.303986117960235,-30.64848542316509,12.227597403459045,16.085845415203504,71.416,-1.3222817000616374,1
9.378734853002577,-12.847714374918176,-44.645265009856466,50.83963515951548,-23.927636648472646,8.403552278383781,12.79869374234548,71.42,-1.3182817000616325,1
7.820641739794234,-11.866596202689916,-43.84538212786175,51.47118210650602,-23.460993682866533,7.65543849329285,12.225709673825097,71.424,-1.3142817000616276,1
7.016339147019934,-14.16420975161242,-41.62407114460255,53.21005675415944,-26.29158267503573,8.556814291739933,13.296653378331413,71.428,-1.310281700061637,1
6.007661209537151,-14.17435073893522,-40.54483762011124,53.83275346958484,-26.51856846694316,8.336545614920933,13.060796531946723,71.432,-1.306281700061632,1
4.221168732423632,-8.501849941639872,-41.70925198566365,51.8180288053557,-20.76990893609424,5.52261053488251,9.419202790735934,71.436,-1.3022817000616271,1
1.9294153857450993,1.4768517704347004,-44.17199538036559,47.58456091716656,-10.69532837581743,0.9787703128279351,2.8977253700087475,71.44,-1.2982817000616365,1
-0.18022482009843555,11.414364429862749,-46.290590943951784,43.074093808729025,-0.8134773430722316,-3.2969266739723517,-3.907238457496929,71.444,-1.2942817000616316,1
-1.6894512404452615,17.763414623331705,-47.354893146496366,40.23755812956662,5.465089452060893,-6.033518896057445,-8.388198921960138,71.448,-1.290281700061641,1
-2.618298359957933,19.77874018833402,-47.82058928010079,39.8102449330232,7.674573155149169,-7.28614558777604,-9.538525048671609,71.452,-1.286281700061636,1
-3.0221150444183045,18.480672673608296,-48.15841486098503,41.25989368634233,6.894657546688006,-7.491489118650363,-7.963204882584898,71.456,-1.2822817000616311,1
-2.650734871987211,14.59626836751711,-47.84503623078169,43.606304684728606,3.5251739420798014,-6.417783536768829,-4.81419235478777,71.46,-1.2782817000616404,1
-1.202867510857973,8.148843214378667,-45.78550633404025,46.13695895114156,-2.8848391233607673,-3.4173548228701454,-0.9952343743910638,71.464,-1.2742817000616355,1
1.0513281174088542,-0.0006443784497352043,-41.79820779331891,48.42802109231843,-11.647144505964128,1.2507319844127331,2.7159154835927906,71.468,-1.2702817000616307,1
3.051858626525508,-6.925939467590472,-37.51622566367292,49.97380007797963,-19.471112925669605,5.6527241627885845,5.234895189639291,71.472,-1.26628170006164,1
3.5861708943296056,-8.865786054788117,-35.529151674393695,50.138317880868904,-21.915647460392595,7.178169264075901,5.407927150300024,71.476,-1.262281700061635,1
2.3329355294593404,-4.338126891268465,-37.34218162296581,48.674720945045074,-17.016029905651845,4.677602473920516,3.0110794714612132,71.48,-1.2582817000616302,1
0.32360833849406984,3.833064553849197,-41.98948577451556,46.27578918322665,-7.69104521873464,-0.24033447896586366,-0.5115966033538305,71.484,-1.2542817000616395,1
-0.7314642379893985,9.970918807883741,-46.6370539110652,44.4137356522596,-0.2353188165307934,-4.150952021320977,-2.6298654732369298,71.488,-1.2502817000616346,1
0.23524653139703977,9.703508173661026,-48.72638212226453,44.371845106953735,0.26402853691663203,-4.369610148451891,-1.478636078211971,71.492,-1.2462817000616297,1
2.8078537744568295,3.3649711861222755,-47.845432141701735,46.227398680613526,-6.214801721391767,-0.9751896582277308,2.6351998801286265,71.496,-1.242281700061639,1
5.457382701445014,-4.342994040138087,-45.80808095802864,48.71908131318474,-14.79119470638951,3.402202421584551,7.36360326834195,71.5,-1.2382817000616342,1
6.7775382793290495,-8.145024809551336,-45.020573892050756,50.19049776864883,-19.641769816655618,5.757912836135009,10.081419634144828,71.504,-1.2342817000616293,1
6.50071208074678,-6.159764147380568,-46.60682729597442,49.83078723772033,-18.30495298285578,4.935316686264539,9.804728421479131,71.508,-1.2302817000616386,1
5.477645446998051,-0.7901868351200754,-49.77206342280521,48.167846347817076,-12.860898529920755,2.1202344008245477,7.657422592206402,71.512,-1.2262817000616337,1
4.781164783580279,3.8170053347439725,-52.67590544282631,46.46571001863699,-7.5103765444202,-0.5075376248793251,5.629939475164609,71.516,-1.2222817000616288,1
4.834210218583913,5.1428129919167045,-53.86153415337444,45.660395616276375,-5.137656315536191,-1.5372617962971704,4.899033438430833,71.52,-1.2182817000616382,1
5.306221446711808,3.5680773769319503,-53.07036120611669,45.8024207386638,-5.830018930227404,-1.0053122830050463,5.228972857041621,71.524,-1.2142817000616333,1
5.7047767951172395,0.9463911642225282,-51.03734861782756,46.38342593984313,-8.038896378139702,0.2600271663253355,5.7816239304590695,71.528,-1.2102817000616284,1
5.9512885282089645,-1.5858174223417494,-48.74789110665185,47.044333920952575,-10.583533725959896,1.649657258099272,6.271962547692693,71.532,-1.2062817000616377,1
6.3623760904070386,-4.2982837975410355,-46.86935766785056,47.876708188205065,-13.371819184980286,3.0983269428265516,7.202049428933235,71.536,-1.2022817000616328,1
7.151081902060672,-7.72230748490146,-45.63956116723362,49.07371901511334,-16.522373832662957,4.638630212586451,9.020811355037605,71.54,-1.198281700061628,1
8.067055846002686,-11.344998506682067,-44.99443247490616,50.43526684448952,-19.38376911713661,5.956296880530078,11.264580527702572,71.544,-1.1942817000616373,1
8.607883838729368,-13.815181734338653,-44.64750540058746,51.37316730396696,-20.859184748604388,6.5923962225245845,12.748424518309616,71.548,-1.1902817000616324,1
8.58550466643728,-14.465437930241398,-44.125571662083026,51.46229928002918,-20.72154979996725,6.567735459483489,12.697019986341767,71.552,-1.1862817000616275,1
8.41944015994517,-14.332239994578158,-42.96320049105649,50.920217767421754,-20.266202821903043,6.61488610893215,11.607099271238644,71.556,-1.1822817000616368,1
8.788360078912483,-15.292271238094076,-41.08289541242309,50.4240540621155,-21.24293197181508,7.574971625859096,10.83071285544518,71.56,-1.178281700061632,1
9.938319660239525,-18.007012382883754,-39.046792910389506,50.3914806739987,-23.940347777214974,9.463133586122561,11.201219150127443,71.564,-1.1742817000616412,1
11.333645628945114,-20.847226061647163,-37.81192381227945,50.486461566921406,-26.44955454541207,11.191724171892218,12.09687305157996,71.568,-1.1702817000616363,1
12.038207044071228,-21.165153408982448,-38.02430332176267,49.936328533787844,-26.14345355971493,11.382474754419597,11.975899958181389,71.572,-1.1662817000616315,1
11.513144462019719,-17.887660784752573,-39.39827167178141,48.3961700565294,-22.16215087369035,9.608448322571947,9.930320489103266,71.576,-1.1622817000616408,1
10.100449695013308,-12.869914553996198,-40.7976091887949,46.46086324975518,-16.49656474372309,6.890364051218839,6.712411490526868,71.58,-1.1582817000616359,1
8.741244417197672,-9.475516668232954,-41.087698373188395,45.22014185847838,-12.454705904101957,4.904285340323178,4.1522493295241,71.584,-1.154281700061631,1
8.185710948270227,-9.55197386416884,-40.105311239326355,45.22793760628154,-11.809273839919976,4.5692707599610625,3.483639628902335,71.588,-1.1502817000616403,1
8.409790182832824,-11.66880920003507,-38.88529136158019,45.912174688253145,-13.279121717830707,5.298101378977921,4.213156029382099,71.592,-1.1462817000616354,1
8.735003099290088,-12.391154864306634,-38.86415878994619,46.06844771211336,-13.788431764500183,5.592060058453195,4.648234548896379,71.596,-1.1422817000616305,1
8.481359803816375,-9.454738865268995,-40.6839923989526,45.006517675124506,-11.309659439218583,4.406658355796959,3.5538548687023437,71.6,-1.1382817000616399,1
7.516640286279117,-3.840208440819778,-43.62284067810527,43.239978818859655,-6.610076515170518,2.0163016342009565,1.3002048947558547,71.604,-1.134281700061635,1
6.228305371746458,1.2033330956138026,-46.16663104131806,42.03728401544201,-2.340754511945361,-0.3724737074437595,-0.5890632220950645,71.608,-1.13028170006163,1
5.0430157037989165,3.1751518048465863,-47.23542109460925,42.26900628564374,-0.5000604267216986,-1.794697360478245,-0.9569949124800288,71.612,-1.1262817000616394,1
4.0455233385243154,2.426848852669825,-46.99120564398988,43.663589378312416,-0.7962725560741568,-2.3078910506474513,-0.040592318795041826,71.616,-1.1222817000616345,1
3.0900493577708312,1.387296535747185,-46.536031426338994,45.14656052662099,-1.3959172452015924,-2.662742760940748,0.9707850123423595,71.62,-1.1182817000616296,1
2.2364149911718374,1.838681726418961,-46.81740813400513,45.85538394779409,-1.0980400818129696,-3.2913300946178574,1.276297645051103,71.624,-1.114281700061639,1
1.9664316368704724,3.0683054728982513,-47.76236851396785,45.803977826146806,-0.6087517113438493,-3.7145277459943475,1.24693303539054,71.628,-1.110281700061634,1
2.8413048768927265,2.751912659265132,-48.415812064831385,45.61143267151973,-1.625732893820175,-3.0147948634534245,1.851689614427435,71.632,-1.1062817000616292,1
4.855674118852121,-0.37319001366517374,-47.91144682399998,45.695723183241505,-4.741121464505699,-0.915524348244617,3.3898853483218705,71.636,-1.1022817000616385,1
7.130309887006805,-4.781119605615812,-46.35270263529938,45.82530355764171,-8.369416623150403,1.6316903285738342,4.915935090843274,71.64,-1.0982817000616336,1
8.350140076624758,-7.151041176802713,-44.808623570311426,45.45498506765268,-9.842478829927453,2.995794564663027,5.001223868101138,71.644,-1.0942817000616287,1
7.685995331661416,-5.178443280124106,-44.46731570347147,44.408818343796455,-7.647473947612055,2.1108138056023487,3.0876054501474317,71.648,-1.090281700061638,1
5.459300835360132,0.40786703266029656,-45.7210224105976,43.146657003931935,-2.7185973478890437,-0.6727800962883796,0.09857498282268665,71.652,-1.0862817000616332,1
2.980260906670682,6.382369026660771,-47.93272871545063,42.36083336676002,2.297895711147862,-3.835400171371293,-2.253230124417374,71.656,-1.0822817000616283,1
1.6690130990790093,9.461215374871193,-49.967050595631775,42.37981481037035,4.961088909583999,-5.751513741910635,-2.75256785636213,71.66,-1.0782817000616376,1
2.1460508453897416,8.438635747695018,-50.94534874613019,43.00162183306111,4.40776659077336,-5.657554506753128,-1.3911717640358792,71.664,-1.0742817000616327,1
3.9545181272148007,4.457493574056225,-50.64525734657735,43.83445763839135,1.3154228653058586,-3.866454873683047,0.9498200152921966,71.668,-1.0702817000616278,1
6.020215011326083,-0.2666484617685041,-49.40964887651135,44.6549974610371,-2.947285393307369,-1.321408344523865,3.2697786037479224,71.672,-1.0662817000616371,1
7.39608367295701,-3.822738413479708,-47.83156912093543,45.35855027509237,-6.9262511803720885,0.9651945154568404,4.860730251281026,71.676,-1.0622817000616323,1
7.740377087121274,-5.1567074166678974,-46.49050106296723,45.65965231154749,-9.20898001587792,2.23256070856207,5.223598388282244,71.68,-1.0582817000616274,1
7.322360313742047,-4.062189094377211,-45.780901024318005,45.075568642046306,-8.711487612709611,2.13513097332159,4.021517802294895,71.684,-1.0542817000616367,1
6.73010722330393,-1.234268880522704,-45.76976344335233,43.400904596649944,-5.4950972697299765,0.9244649771116753,1.4436527965394756,71.688,-1.0502817000616318,1
6.539272683378941,1.6976953459447028,-46.15129976317364,41.20594779860838,-1.3838795480811394,-0.49342006591827725,-1.4143164507589343,71.692,-1.0462817000616411,1
7.046277148257611,2.833342768955892,-46.4613340040131,39.67935817546305,0.7783613302505235,-0.9698273625888292,-2.9061780563251336,71.696,-1.0422817000616362,1
8.070250446606789,1.45590512823758,-46.514088638505264,39.73422487101752,-0.7298676018476246,0.016624587868562878,-2.033048793377543,71.7,-1.0382817000616313,1
8.917803853751131,-0.8725527476763808,-46.685154841431846,41.1319189952971,-4.645065718567233,1.6848982498330645,0.4681522087941758,71.704,-1.0342817000616407,1
8.683553801764914,-1.0249155575798279,-47.63726704570505,42.52685195776777,-7.159870138350581,2.271822232461681,2.3398247496411053,71.708,-1.0302817000616358,1
6.870197814614044,3.1708933200960563,-49.566245593132685,42.53221595261541,-4.862692046626143,0.3954855567944934,1.4601449956388197,71.712,-1.0262817000616309,1
3.9325208411132424,10.607201688790393,-51.63327518616495,40.89759577860089,2.1280915485343286,-3.5696393987131514,-2.3624952721607273,71.716,-1.0222817000616402,1
1.2030015239772307,17.136546863197857,-52.28244031448383,38.70550157998243,9.772999682656012,-7.430090742990146,-7.105518592339532,71.72,-1.0182817000616353,1
0.05425056296721202,18.681539643971924,-50.41793478777951,37.38089062856199,13.199531948983337,-8.749397973340411,-10.148880023364525,71.724,-1.0142817000616304,1
0.8545985122588834,14.743460205047779,-46.527939954303974,37.43003668225875,10.795652829222526,-6.872544033525663,-10.423264240958268,71.728,-1.0102817000616398,1
2.607931945095631,9.100080048584028,-42.68244773988576,38.08258948686019,5.668835775729695,-3.6145808666008428,-9.162408649782943,71.732,-1.0062817000616349,1
3.696393447503026,6.786153667501944,-41.189330536975454,38.14245571449727,3.014029544815457,-1.8642911080424147,-8.585410729299817,71.736,-1.00228170006163,1
3.187334206191348,9.82980010717409,-42.87693027249021,37.204254168452714,5.59788347447063,-3.1911523253651306,-9.751189358433423,71.74,-0.9982817000616393,1
1.5996293573795946,15.48739429454676,-46.39901683911928,36.07151394803101,11.326380390487921,-6.503170070952055,-11.582731080373941,71.744,-0.9942817000616344,1
0.44437075743012744,18.56581247257956,-49.17857394929737,36.0043298768445,15.032553223024593,-8.937536694666061,-11.93095568591532,71.748,-0.9902817000616295,1
0.9355775163193031,15.775492601369137,-49.26556175693201,37.53467267684748,12.86289014364549,-8.215950287379524,-9.627120893869867,71.752,-0.9862817000616388,1
3.0116141249336468,8.301670417011128,-46.65067007054806,39.95534695408658,5.408300482982742,-4.434606142321982,-5.591655766144026,71.756,-0.982281700061634,1
5.502296729374039,0.5096207987246009,-43.07518062274842,41.911407399106466,-2.9986272330952586,0.17498468992926566,-2.0245017612906855,71.76,-0.9782817000616291,1
7.206299643091617,-3.7849534634353184,-40.63036005328663,42.49983973328059,-7.9192234516235205,3.1490428281610376,-0.5206452361877568,71.764,-0.9742817000616384,1
7.835455963756746,-4.050324654387176,-40.34395612330387,41.8836507035724,-8.049466115835553,3.60748491926704,-0.8828446930695673,71.768,-0.9702817000616335,1
7.997837699306626,-2.5967398791958716,-41.78782942174785,40.96019718364514,-5.458000131099507,2.505819968246616,-1.6212854191551467,71.772,-0.9662817000616286,1
8.376421074777358,-1.8744750525071754,-43.77179514686652,40.50991600398611,-3.1472577415756913,1.3942895633032564,-1.4870987011173304,71.776,-0.9622817000616379,1
9.016159212097264,-2.348998132822189,-45.33002908695388,40.64625672994274,-2.535345417538509,1.0485515793883804,-0.49659488411380487,71.78,-0.958281700061633,1
9.428716342960772,-2.850780411303288,-46.15688999474147,40.9913757602882,-3.075287514970659,1.2147293512653554,0.448136466501112,71.784,-0.9542817000616282,1
9.320584644063027,-2.6582789197535703,-46.31571925053869,41.27642800822605,-3.865792298395836,1.4508030553635693,0.7919747610354527,71.788,-0.9502817000616375,1
9.099425018550477,-2.914135671524125,-45.73137599702979,41.71525283869491,-5.2154375785631,1.9728285827737375,1.073442807097896,71.792,-0.9462817000616326,1
9.571017926854912,-5.816979023264502,-44.07542801227181,42.797478321490836,-8.44693375546038,3.546629594517256,2.4242149481336996,71.796,-0.9422817000616277,1
11.108258148143838,-12.36981991203233,-41.15889204152675,44.73761473246486,-14.221216624706638,6.557810832015367,5.3462448656416415,71.8,-0.938281700061637,1
13.142528139681717,-20.93423909215002,-37.388402587918044,47.12807352469793,-21.22297396318774,10.281040578692417,8.993973400183734,71.804,-0.9342817000616321,1
14.520534180985484,-28.071843271066882,-33.75090666408487,49.129349250894755,-26.678537037943386,13.17718862426553,11.674214916949365,71.808,-0.9302817000616272,1
14.417122637582588,-31.000566619800992,-31.235857118592204,50.0390476684899,-28.35322882228673,14.017930889491186,12.115551365116248,71.812,-0.9262817000616366,1
12.962796100519146,-29.5400033272825,-30.155492568129773,49.766690559702965,-26.235924821973438,12.819536760806558,10.382397296357034,71.816,-0.9222817000616317,1
11.042423341009025,-25.95123813944383,-29.963276980467462,48.8457017290394,-22.413688340727166,10.745853217018027,7.694225173572014,71.82,-0.918281700061641,1
9.515112350451634,-22.973403730436868,-29.752049299818243,48.00536267088639,-19.307468035774566,9.103607110327065,5.408838934364576,71.824,-0.9142817000616361,1
8.601064107891322,-21.83926027305357,-29.002267630402287,47.663651194232585,-17.875779273960255,8.360368108903208,4.092223766388992,71.828,-0.9102817000616312,1
7.936609738677368,-21.87047656255479,-27.911490538799487,47.73282483593988,-17.31243307387367,8.028980551083421,3.3959850495272947,71.832,-0.9062817000616405,1
7.121550222686187,-21.73216607224154,-27.02006613126963,47.85713292680107,-16.335145617967953,7.416979364500877,2.691715307491004,71.836,-0.9022817000616357,1
6.161991580281649,-21.00316482971426,-26.52777037733758,47.850829906507414,-14.742036692054608,6.4563856160275375,1.8037647962898729,71.84,-0.8982817000616308,1
5.4116939877434875,-20.59936124528218,-26.021961835658672,47.94442006838854,-13.761478168503166,5.818144742841947,1.2085424504700522,71.844,-0.8942817000616401,1
5.161980999008559,-21.757186367402966,-24.944848403022263,48.60588052299915,-14.904492349807958,6.240315982099895,1.5983496161256014,71.848,-0.8902817000616352,1
5.352162133036287,-24.635747378721696,-23.344214714236383,50.07013327789731,-18.435211010273772,7.756315867034016,3.2365618252642423,71.852,-0.8862817000616303,1
5.686662790189586,-27.937187975498244,-22.061108771282488,51.99433850664828,-22.934990082858313,9.596555274086352,5.655730258714834,71.856,-0.8822817000616396,1
5.994838109049757,-29.994334954563552,-21.99134062541756,53.59760456570519,-26.431173226279146,10.884317137203736,7.940088994301609,71.86,-0.8782817000616348,1
6.42686619219474,-30.37854392725716,-23.033572622314693,54.24447873103375,-28.097638523530126,11.469099999917807,9.369310149955673,71.864,-0.8742817000616299,1
7.2661823015916935,-30.49790177789631,-23.82626461503797,54.008213930220165,-28.949726659941902,12.07445035216689,9.925046468897465,71.868,-0.8702817000616392,1
8.544721586577374,-32.48390387135745,-22.759187037156682,53.69967349838993,-30.839177611094808,13.56832404216302,10.269549392478623,71.872,-0.8662817000616343,1
9.86607422646761,-37.24463372661326,-19.489797281815925,54.27329396219077,-34.65052208380046,16.026948218426327,11.218636685144956,71.876,-0.8622817000616294,1
10.663123918300576,-43.45963831640849,-15.52676508450627,56.077490466321606,-39.4186832793398,18.528485338088185,13.135986957544201,71.88,-0.8582817000616387,1
10.70389018962938,-48.562016573467474,-13.155266269848774,58.58523655525609,-43.267340486906484,19.963080432283146,15.732416153054091,71.884,-0.8542817000616338,1
10.389201141943166,-50.92693059559994,-13.529482964638877,60.828735307685406,-45.28910828528885,20.13832113137006,18.389264264529082,71.888,-0.850281700061629,1
10.517632479675656,-51.24502647246702,-15.664389957982282,62.13261914005405,-46.46403349589271,20.07155244187311,20.651645864739212,71.892,-0.8462817000616383,1
11.642894474120432,-51.70765256429164,-17.332663531090684,62.49338136175624,-48.56804082379617,21.061205127208943,22.41087595609291,71.896,-0.8422817000616334,1
13.543129421602767,-53.71300498765584,-17.09640774013218,62.331763518523786,-52.063574138813735,23.33601573425351,23.6620781922217,71.9,-0.8382817000616285,1
15.295440321041879,-56.34301860093298,-15.576839860333546,61.96689734070764,-55.17482050064962,25.6187171035304,24.213624196636264,71.904,-0.8342817000616378,1
15.968101675192791,-57.22159400224705,-14.75238288229524,61.38938305877984,-55.34522014046052,26.171367836515852,23.79034445451434,71.908,-0.8302817000616329,1
15.38348323984996,-54.999666750144826,-15.97767221211859,60.51717313064474,-51.852027641512606,24.441928818492254,22.486781414789057,71.912,-0.826281700061628,1
14.275374773492093,-50.93691754443568,-18.677863665519176,59.54257562531552,-46.92491127459792,21.714730853070144,21.007011232675016,71.916,-0.8222817000616374,1
13.649597681557259,-47.799342074405494,-21.008371292123645,58.87030080076202,-43.94377786122762,20.006029087417208,20.22556365802029,71.92,-0.8182817000616325,1
13.881518293632773,-47.02034007539324,-21.796123145276997,58.64951616013103,-44.21096832961594,20.153950327871122,20.34244676865124,71.924,-0.8142817000616276,1
14.382620649226624,-47.06149222620941,-21.75750414490331,58.4589694427712,-45.510003806105324,20.96797224130747,20.519437843912776,71.928,-0.8102817000616369,1
14.195581117778248,-44.94226407386067,-22.681298772639998,57.64042653837759,-44.20168824684618,20.403328925711886,19.585914511479128,71.932,-0.806281700061632,1
13.004479208813953,-39.696903014010005,-25.33099057454804,56.073505576025816,-39.11852177763743,17.750320602030065,17.318109979325662,71.936,-0.8022817000616271,1
11.5916706605345,-34.246236485471556,-28.2089821731317,54.5788703863568,-33.41734611347057,14.69152923635262,15.010494488829922,71.94,-0.7982817000616365,1
11.231320110720361,-33.36223897552138,-28.60244477499503,54.36002366237844,-32.17677812353866,14.012295095449534,14.537823005506768,71.944,-0.7942817000616316,1
12.513860610345596,-39.18439434824325,-25.131718964468796,55.84299382466061,-37.59891825543008,16.98600233289006,16.572174800245868,71.948,-0.7902817000616409,1
14.693657114401324,-48.460949859289826,-19.462314599208845,58.01150662396595,-46.283955560680646,21.85908874310236,19.642967537709698,71.952,-0.786281700061636,1
16.219264485529692,-54.45841987293085,-15.461852333758955,59.02436150068468,-51.44563176879587,24.986431672705866,21.13584631656546,71.956,-0.7822817000616311,1
16.00492870720451,-52.22586728017871,-16.350667759366583,57.72189501549236,-48.40858753117166,23.74573431133146,19.51256453668864,71.96,-0.7782817000616404,1
14.285856425532344,-42.63510847916906,-22.212622634240002,54.6975481763879,-38.541303576065665,18.669479847960282,15.736150239594215,71.964,-0.7742817000616355,1
12.28462230294208,-31.573365834925514,-29.937748295433728,51.898213920138126,-28.06703679172747,12.909437269821671,12.485877429184848,71.968,-0.7702817000616307,1
11.044736596207692,-25.03796719897346,-35.56941444668821,51.03368656915329,-22.834465145537308,9.570491839855944,11.792931785982072,71.972,-0.76628170006164,1
10.556778574600553,-24.54067642267097,-37.049735872180904,52.19066752458256,-23.74714932467806,9.327996155060712,13.262119365286136,71.976,-0.7622817000616351,1
9.963437082568108,-26.73602065941929,-35.20836877319507,53.876435222963906,-26.763077445858773,10.34170129895306,14.525893273988085,71.98,-0.7582817000616302,1
8.545201940200812,-27.14245435841984,-32.497392205580226,54.40383597229042,-27.052458953794837,10.277553279494763,13.465714325808932,71.984,-0.7542817000616395,1
6.4597272795450325,-24.191478125692477,-30.84204154976999,53.32122526025665,-23.237109600913126,8.402254880799184,10.087421855774759,71.988,-0.7502817000616346,1
4.542625122688257,-19.986914987188253,-30.44704618836898,51.62357735051259,-17.993229638924536,5.909368141259388,6.351620200021561,71.992,-0.7462817000616297,1
3.4754571052266097,-17.6280709355662,-30.270618615649457,50.67618172600364,-15.024122185170347,4.493049558206357,4.278123346949439,71.996,-0.7422817000616391,1
3.2276168976225943,-18.140385367507843,-29.364464451589583,50.95808321302314,-15.695938753516975,4.778071463797981,4.237016998170737,72.0,-0.7382817000616342,1
3.2903579384697785,-19.95089383262363,-27.743702110533423,51.7872448421028,-18.427381618139844,6.062393889132875,4.981980891591485,72.004,-0.7342817000616293,1
3.32470125091598,-20.931233780884682,-26.178803440338456,52.158065399318595,-20.839515082376938,7.309109868367728,5.157675784997784,72.008,-0.7302817000616386,1
3.440166725872755,-20.513581910713086,-25.399281195053522,51.769911043952476,-22.04902421473208,8.122558335150492,4.629251215522988,72.012,-0.7262817000616337,1
3.826441894200167,-19.73454182902399,-25.592821462674046,51.25033359770225,-22.844553466622713,8.727239048718069,4.367902217700288,72.016,-0.7222817000616288,1
4.266173591175422,-19.571676973237356,-26.5485572919727,51.451966354408505,-24.06614101141906,9.242246827834178,5.225988503211002,72.02,-0.7182817000616382,1
4.220939606694108,-19.731570365960852,-28.0413223091269,52.593355431034844,-25.36725933714291,9.315464027972624,7.010392946529091,72.024,-0.7142817000616333,1
3.4935277716462303,-19.269342655170114,-29.90281430951336,54.0679106925633,-25.78712230015311,8.631279880311633,8.76656092031543,72.028,-0.7102817000616284,1
2.7069756185961826,-18.13339192322403,-31.75394754902024,55.01080187060135,-25.26826027399253,7.6404787096825615,9.797343547356745,72.032,-0.7062817000616377,1
2.9165694945384715,-17.600652125088907,-32.902231744084624,54.99588541026603,-25.09899422657214,7.471506537139111,10.217916653802089,72.036,-0.7022817000616328,1
4.588649319102843,-18.871970961937237,-32.78374399335777,54.22132651519117,-26.53029578997288,8.868946888198112,10.507088022775786,72.04,-0.6982817000616279,1
6.968231401019507,-21.339734913199337,-31.649346101679015,53.14051992082262,-29.038604004482057,11.203396914565017,10.715536782953277,72.044,-0.6942817000616373,1
8.598723558837696,-22.64463367798769,-30.7253583700212,52.02366562225304,-30.330045219940324,12.728134744535604,10.3495133423229,72.048,-0.6902817000616324,1
8.620117383377051,-20.81399810027434,-31.43049373902365,50.88400629631768,-28.41248876610426,12.060090161062032,9.092766764645505,72.052,-0.6862817000616275,1
7.609035425739156,-16.43323487844738,-34.15840545939722,49.72524001850533,-23.76284107105343,9.5388240626352,7.481381902018382,72.056,-0.6822817000616368,1
7.083952084095751,-12.521967617976877,-37.71609693495808,48.73148071987772,-19.3054615601491,7.092930424079658,6.635162885030938,72.06,-0.6782817000616319,1
8.093751751431252,-12.010067066118562,-40.06549696657374,48.16289916092694,-18.038220797579616,6.639624900403276,7.217509017510472,72.064,-0.6742817000616412,1
10.247366709903812,-15.188601342611527,-39.861085860822904,48.11089290470687,-20.537886562068557,8.48981406942773,8.739500081464584,72.068,-0.6702817000616363,1
12.143038401221617,-19.637992815778354,-37.48570466774562,48.430703347697474,-24.743186242247845,11.252102167115677,10.041039809737073,72.072,-0.6662817000616315,1
12.777589180568201,-22.696825546203293,-34.666390771169425,48.93546060180513,-28.142847210696026,13.272089166933249,10.52092457876218,72.076,-0.6622817000616408,1
12.533195666737317,-23.98969731669922,-33.011738519664945,49.60675123926324,-30.11082134970725,14.157062787819893,10.815247492250972,72.08,-0.6582817000616359,1
12.753573081845516,-25.491300003117935,-32.788683568854694,50.55368902949985,-32.07181658668811,14.905275118544754,12.139262928770627,72.084,-0.654281700061631,1
14.33344842155418,-29.12600162998866,-33.016470579306834,51.76451872058175,-35.4761260747628,16.596992447585706,14.923638694336658,72.088,-0.6502817000616403,1
16.741451276771432,-34.41980958438742,-32.70994076307242,52.9697362762014,-39.82097879985641,19.04857941376367,18.190962180579756,72.092,-0.6462817000616354,1
18.47297125429129,-38.67120947286603,-32.025779636539674,53.83465906907921,-42.85912871997825,20.834864649833968,20.413622856179497,72.096,-0.6422817000616305,1
18.505134154747203,-39.54639615029023,-32.17295134282314,54.31594030308664,-42.825447650615864,20.6746882397235,21.04903244617193,72.1,-0.6382817000616399,1
17.322000802667073,-37.533421952033635,-34.13673262780227,54.78449570484817,-40.39918898485566,18.791799316551344,21.171047740624996,72.104,-0.634281700061635,1
16.492393254941796,-35.792134843520536,-37.413419684041315,55.724557556265886,-38.36568019738661,16.88740996117688,22.466873952563926,72.108,-0.6302817000616301,1
17.199170081737226,-37.48022942445251,-39.98967419727608,57.267828392345855,-39.253726111361225,16.731888532724227,25.52474272628251,72.112,-0.6262817000616394,1
19.135501722669215,-43.063305060615825,-39.70072662187071,59.028409467791654,-43.220159079537865,18.709496437039213,29.110783134524343,72.116,-0.6222817000616345,1
20.81288467474372,-50.06253110910335,-35.87383812629462,60.423863918134195,-48.14316030791451,21.640361255764137,31.202419694670464,72.12,-0.6182817000616296,1
20.95587216720657,-55.31462839408289,-29.89868007913418,61.17757762829185,-51.67633170121578,23.93705382145253,30.819136557481922,72.124,-0.614281700061639,1
19.639761114434812,-57.52259696929898,-24.262982318953096,61.51111738181335,-53.18805978541715,24.926472689066337,28.896287888354763,72.128,-0.6102817000616341,1
18.126450984105663,-57.8361474013393,-20.840308506766874,61.854352803235315,-53.83316861613094,25.14838957207891,27.380431164817253,72.132,-0.6062817000616292,1
17.628365425245878,-58.254161351213526,-19.765614257839136,62.392288054892674,-54.983063878624655,25.533971767138087,27.448214240400706,72.136,-0.6022817000616385,1
18.216139929904486,-59.63183283523186,-19.689966498594483,62.91554860401716,-56.774397076053766,26.410048275885007,28.554459600073482,72.14,-0.5982817000616336,1
18.861689443704208,-61.13316063254364,-19.087665915428673,63.0983292001526,-58.154106117792,27.27755810580527,29.13735591610226,72.144,-0.5942817000616287,1
18.469003854538567,-61.31226364777402,-17.515403647203815,62.87142551829102,-58.10601076096643,27.415622959519435,28.177625723595263,72.148,-0.590281700061638,1
16.844065181337434,-59.48625055855524,-15.853202250119054,62.4803891273791,-56.61879540661014,26.573057290176475,26.060736616391456,72.152,-0.5862817000616332,1
14.731610918437836,-56.12334510887253,-15.414047227148272,62.19225266990598,-54.48589281777553,25.08873592094165,24.01068564451087,72.156,-0.5822817000616283,1
13.029193238322271,-52.24318249505264,-16.697132020991564,62.013342198724054,-52.43350172237208,23.49897827990902,22.83230252146096,72.16,-0.5782817000616376,1
12.044473784481626,-48.75692217666469,-18.81620559395256,61.75400449931642,-50.703678824194384,22.18181977401336,22.29650853700023,72.164,-0.5742817000616327,1
11.47376905149526,-46.33759170820419,-20.09147435419957,61.35126778287683,-49.43996352075385,21.360308992221913,21.683683756563624,72.168,-0.5702817000616278,1
10.943608253012155,-45.461562492685886,-19.36817289948469,61.02694453157288,-49.08114830879066,21.22386238282335,20.716468533552856,72.172,-0.5662817000616371,1
10.403597399591062,-46.02522456347617,-17.01868740344118,61.02497672051348,-49.924870018635644,21.77788600601809,19.762321859430383,72.176,-0.5622817000616323,1
9.94804369551293,-46.76130002687238,-14.785099142112935,61.18776778905206,-51.20384928120587,22.498665087159743,19.115771878466454,72.18,-0.5582817000616274,1
9.391467561043301,-45.4579048157575,-14.518155387949358,60.9135937783113,-50.991051922423004,22.346447021021277,18.315603765754023,72.184,-0.5542817000616367,1
8.252243250201488,-40.48728568476463,-16.78770426665415,59.70280112354754,-47.64960217665472,20.47497914905741,16.49456860526708,72.188,-0.5502817000616318,1
6.314173483015232,-32.61453716237833,-20.510349325022734,57.83225941093372,-41.76110066719827,17.16209816226716,13.577456098383239,72.192,-0.5462817000616411,1
4.173135887992131,-25.171200626370688,-23.942665426378568,56.40958515552594,-36.44482938827201,13.970999720654278,11.00497467684893,72.196,-0.5422817000616362,1
3.0291945482539933,-21.786754817490667,-26.22162632880129,56.55284501808082,-35.15109871774471,12.67633136902648,10.901108928675418,72.2,-0.5382817000616313,1
3.712551823683874,-23.26031492610537,-28.097190218994072,58.32050616904553,-38.53605949013167,13.713002174079534,14.147504468422204,72.204,-0.5342817000616407,1
5.815477715955279,-26.460172393358192,-31.144002016329488,60.40851857919607,-43.373147467757924,15.601323493854492,19.152002088439797,72.208,-0.5302817000616358,1
7.8621307420111854,-26.69378972993787,-36.08993520926573,61.050009129928206,-44.94392851458766,16.091368815163968,22.724144766687928,72.212,-0.5262817000616309,1
8.505666827261049,-21.798362380045422,-41.77922057547933,59.45319278265121,-41.104275470951485,14.159030936529064,22.563967880034937,72.216,-0.5222817000616402,1
7.6909037226074215,-14.279635749935098,-45.83026929916998,56.525306941112824,-34.3486387187117,11.02476957326642,19.21756353083014,72.22,-0.5182817000616353,1
6.658786268010887,-9.302279364902184,-46.55498250928712,54.178665180856726,-29.761674129048185,9.130002632225015,15.651481922144875,72.224,-0.5142817000616304,1
6.743959587800481,-10.117329644232159,-44.48627630699219,53.7628283185404,-30.52404597463302,9.908897752124618,14.711966267391897,72.228,-0.5102817000616398,1
8.1025641757492,-15.0640322717964,-42.08604640764783,54.97507103768623,-35.061393640451755,12.42153963443649,16.7122974720241,72.232,-0.5062817000616349,1
9.602090144010642,-18.993733903183216,-41.780385035524105,56.19355811542518,-38.51955075453642,14.185036702634747,19.31298473117319,72.236,-0.50228170006163,1
9.971056235111309,-17.863568527022316,-44.00863505422385,55.90391174806256,-37.20348299741152,13.457224913426302,19.743493682057533,72.24,-0.4982817000616393,1
9.058558582955753,-12.21931827661204,-47.02666544374405,53.92357099730759,-31.792594715187388,10.798909751465517,17.25753910381462,72.244,-0.4942817000616344,1
7.954633146533765,-6.334243433982409,-48.63991279937315,51.365350511561076,-26.339479110687012,8.416130987836057,13.577520698111702,72.248,-0.4902817000616295,1
7.883258548337822,-3.966003388041195,-48.26044071107411,49.48287916373403,-24.16834608560659,7.956551697679036,11.072100774971037,72.252,-0.48628170006163884,1
9.020298043256092,-4.9516470390863985,-47.36563333670938,48.558089077099666,-24.788277281805502,8.963490974999257,10.56367956224628,72.256,-0.48228170006163396,1
10.435197600687331,-5.936657758540635,-47.93684079764484,47.86796046677945,-24.837350812855018,9.521450105100456,10.886241196473257,72.26,-0.47828170006162907,1
11.163278816413309,-4.3225253952583715,-50.39068853592635,46.659004118308175,-21.959060219160737,8.395955427142981,10.45403578848101,72.264,-0.4742817000616384,1
11.231689095218403,-1.2509204301749468,-53.028453856664186,45.06934631683989,-17.525292330343152,6.42873368097445,9.074897524149545,72.268,-0.4702817000616335,1
11.533050539232256,-0.4633102619162024,-53.582669333761196,44.038805667449495,-15.317611439989008,5.698620213642363,8.093114615342317,72.272,-0.4662817000616286,1
12.697208541056403,-4.189612531292434,-51.393424630421414,44.31485093359669,-17.48585572481265,7.278808182268212,8.778025229605197,72.276,-0.46228170006163793,1
14.220000853913996,-10.413708922328588,-48.089337434241486,45.608879517056295,-22.023519112252085,9.940759167564257,10.756925930287627,72.28,-0.45828170006163305,1
14.867027779097906,-14.569507594649613,-46.06466706161673,46.816781070639216,-24.559706271075434,11.257221089722673,12.252850987881997,72.284,-0.45428170006162816,1
13.999343181857304,-14.143215341548606,-46.19510098682944,47.121274104198264,-22.826477036296776,10.087179139974793,11.95699693864447,72.288,-0.4502817000616375,1
12.413556915479466,-11.470110521272233,-47.01866435578576,46.85160714469795,-19.239173094818646,7.903071012855015,10.55971289884422,72.292,-0.4462817000616326,1
11.713111677171836,-11.622708767794872,-46.217142768055396,47.16886655315018,-18.735783029476572,7.480532597337145,10.213123737667713,72.296,-0.4422817000616277,1
12.750097362883656,-17.240138961644508,-42.98786146379954,48.81959812194532,-23.7939800963222,10.131660664822057,12.320624372115233,72.3,-0.438281700061637,1
14.719717533792679,-25.455268872142952,-38.988939593526126,51.19084186420023,-31.584959697081903,14.240732448532572,15.877876316225507,72.304,-0.43428170006163214,1
15.91009797531059,-30.234992704415383,-36.89014372898825,52.680093769031096,-36.32315330674063,16.678995181404847,18.179102814397723,72.308,-0.43028170006162725,1
15.433664428200034,-28.111181286480736,-37.87917237660135,52.124773483506125,-34.75306545379654,15.823883124111164,17.36109808106133,72.312,-0.42628170006163657,1
14.199980886323138,-21.740508641519348,-40.507424224110636,49.94895659084428,-29.444565253856602,13.225377618562021,14.318183023757147,72.316,-0.4222817000616317,1
14.077083747666526,-17.645255360626287,-41.995004278885865,47.88087729943807,-26.5153985598234,12.193813640939927,12.003883511291042,72.32,-0.418281700061641,1
15.995311346175741,-20.112908446722948,-40.772700189508406,47.43481234884922,-29.788146868583215,14.58339693641633,12.660234873373291,72.324,-0.4142817000616361,1
18.862060936604397,-27.059080342505315,-37.878152609890684,48.554686629685165,-36.955091477751594,18.865693095179502,15.60988376867851,72.328,-0.4102817000616312,1
20.419420763940646,-31.864865628214893,-35.93915707872198,49.70085001246086,-41.5090531617404,21.400771044226765,17.792034048048993,72.332,-0.40628170006164055,1
19.282645664519922,-29.48273085983337,-36.75780320409127,49.308606246844576,-38.69905021297779,19.748009357549527,16.600323007988397,72.336,-0.40228170006163566,1
16.21862079954721,-21.028998174125505,-39.76045085588836,47.24744767721771,-29.908513958682608,14.89603775115713,12.335856760774435,72.34,-0.3982817000616308,1
13.436738353829417,-12.586604971896065,-42.66329429060694,44.913361635585105,-21.35995111802368,10.330541221740258,7.929209169371925,72.344,-0.3942817000616401,1
12.572882675240237,-9.500245754037362,-43.58883542914297,43.88927593957971,-18.436361745638013,8.86720024520048,6.196084068797913,72.348,-0.3902817000616352,1
13.280416802592741,-11.636653754885636,-42.604752703873345,44.457784911127156,-20.97708549654013,10.240023388695711,7.240266852883503,72.352,-0.3862817000616303,1
13.717028600955144,-13.948706234162737,-41.3645820234235,45.362248591529614,-23.82836067145944,11.618692462639656,8.443679273921253,72.356,-0.38228170006163964,1
12.383263925083469,-11.510768336126661,-41.39410114723715,45.00628763352494,-21.888330802194446,10.411052092025217,6.9925966349246345,72.36,-0.37828170006163475,1
9.52600505875505,-4.07866332074313,-42.74731995104792,42.93393008897985,-14.778808294358791,6.633447861340202,2.5114085570747515,72.364,-0.37428170006162986,1
6.828029752732383,3.9940208987971078,-44.21192591121637,40.21909662374023,-6.905647170679597,2.7102148270929685,-2.6337890204667054,72.368,-0.3702817000616392,1
5.790973001405093,8.017701153297365,-44.6589714752969,38.46862746815195,-3.1911262640640548,1.0933259419876018,-5.520529825481039,72.372,-0.3662817000616343,1
6.415188186904114,7.092238260393068,-44.10890838231343,38.4351410957927,-4.720109511904277,2.0772937372544815,-5.190843386126654,72.376,-0.3622817000616294,1
7.383823683096992,4.298715020476273,-43.53544967754612,39.519798077202836,-8.283194321885725,3.805655400466716,-3.189348181810967,72.38,-0.35828170006163873,1
7.453330362266129,3.212018233831239,-43.76347096286571,40.51789767450884,-9.864642556418701,4.2560605018325335,-1.8111932531543258,72.384,-0.35428170006163384,1
6.641406765410319,4.437355340892408,-44.659459264752755,40.78059516804214,-8.460685939486847,3.1637533284051864,-1.9029653985104535,72.388,-0.35028170006162895,1
6.10589726752046,5.48030724521377,-45.39520109470069,40.669145136887714,-6.6317065567698865,2.0811044017196205,-2.3095463998709973,72.392,-0.3462817000616383,1
6.929445009582929,3.7225617452014257,-45.412418859490124,40.97481150758595,-7.585036519213121,2.683821561844993,-1.3131844455120354,72.396,-0.3422817000616334,1
9.039688596712393,-0.7380210050799096,-45.02461107273207,42.00985287488658,-11.892149567450483,5.08767835475442,1.517561818909096,72.4,-0.3382817000616285,1
11.273702737768584,-5.228112812053653,-45.018065554269135,43.31715410323013,-17.037061496287293,7.791922493432519,4.900460528178875,72.404,-0.3342817000616378,1
12.445948480201222,-7.288351627549061,-45.67734680221471,44.22175586277188,-20.01420199380129,9.189387149746661,7.122808930845289,72.408,-0.33028170006163293,1
12.353244790085077,-7.11943709443334,-46.28084694911279,44.55390066936967,-20.20332613655716,9.075502451239617,7.6209622694089365,72.412,-0.32628170006162804,1
11.795368207142685,-7.15463666721868,-45.67696318801696,44.73520134657737,-19.635860658655083,8.676358669921171,7.2605322902495,72.416,-0.32228170006163737,1
11.684067527867764,-9.229239689443485,-43.48054220791907,45.14889347976792,-20.502067044363038,9.23181965388483,7.1470682802050955,72.42,-0.3182817000616325,1
12.161586662776882,-12.300845307041913,-40.74966730929887,45.52224832619479,-22.54860288766756,10.597665584498028,7.317614930538644,72.424,-0.3142817000616276,1
12.569483489272319,-13.172190122753104,-39.38220014633212,45.07071488631943,-23.11963607974654,11.297590885716986,6.736237087523035,72.428,-0.3102817000616369,1
12.238457990192659,-9.682458550570125,-40.60698713318911,43.34818422935451,-19.924481943797304,10.019515935878538,4.6077694721308164,72.432,-0.306281700061632,1
11.275882296759312,-3.29180667212836,-43.83004514603757,40.945683063537736,-13.806056275180504,7.105438934147924,1.6009037989014574,72.436,-0.30228170006162713,1
10.555857903651212,1.6061335724790435,-46.90873915560156,39.23841899868664,-8.62154048027284,4.525811826927721,-0.39594266587022275,72.44,-0.29828170006163646,1
10.910045655628897,1.2684662912221831,-47.760914511250334,39.29370305881456,-8.067518425919951,4.24092537947716,0.1152925520274961,72.444,-0.29428170006163157,1
12.305446807321461,-4.111670566074433,-46.036944266611954,40.92948000301489,-12.317200756740528,6.42015873795147,2.8107300411390974,72.448,-0.2902817000616409,1
13.828653858442452,-10.512364008579201,-43.4285987067289,42.85409526846719,-17.729449121365015,9.22042439414804,5.7672383156154385,72.452,-0.286281700061636,1
14.538930983882565,-13.649263280515044,-42.26785637920624,43.825276212716105,-20.13074201195138,10.440918501571955,7.242735973502036,72.456,-0.2822817000616311,1
14.407977713493384,-12.856048993684134,-43.52346285288422,43.77682590807008,-18.76695059796178,9.607494825355296,7.354163997611375,72.46,-0.27828170006164044,1
14.428014043878402,-11.719425444069225,-45.88726285667461,43.84626797314741,-17.19936487451769,8.540038596061548,7.991732562174177,72.464,-0.27428170006163555,1
15.698720574824803,-14.75456032426994,-46.79113093077129,45.244136245079744,-20.08246531082945,9.75224686678546,10.933052879180673,72.468,-0.27028170006163066,1
18.258956471772155,-22.99127205267102,-44.570174959920756,47.99538262933434,-28.558502960575233,14.008972303532078,15.85663856852844,72.472,-0.26628170006164,1
20.73981056908072,-32.425613402833584,-39.96928004298862,50.72328448826871,-38.44295026229259,19.230530500855917,20.144218149909445,72.476,-0.2622817000616351,1
21.26356544872559,-36.86318819042994,-35.69127991289903,51.703040200048015,-43.05528419135591,21.850402989411148,20.792743656500125,72.48,-0.2582817000616302,1
18.9373369895462,-32.874427128147396,-34.318045000149766,50.27100530398711,-38.49443300621135,19.614166130424408,16.864396710550793,72.484,-0.2542817000616395,1
14.72497430460828,-22.746124003436105,-36.307616246551824,47.383519728913214,-26.97878513968577,13.515947481852386,10.408083874299821,72.488,-0.25028170006163464,1
10.934282423953526,-13.005975212258175,-39.697444393500106,44.90067890629749,-15.475144273515514,7.245380380410745,5.098222168612046,72.492,-0.24628170006162975,1
9.660503780140584,-9.761075373336162,-41.702309575891746,44.25981680895067,-10.753741308417519,4.56680297497496,3.7300026935792356,72.496,-0.24228170006163907,1
11.359544464778837,-14.554328732723082,-40.848154425196995,45.6200109320667,-14.805987362177383,6.702356683910097,6.5265584393418345,72.5,-0.23828170006163418,1
14.60917367078341,-23.761091364498025,-37.940120768191626,48.02346959321513,-23.993046205807364,11.686549922648616,11.37506515184987,72.504,-0.2342817000616293,1
17.18264180374268,-31.574866408875963,-35.23347529736177,50.23377812783365,-32.13351899995922,16.00720537044183,15.518235404178792,72.508,-0.23028170006163862,1
17.588366160912383,-34.004588047267035,-34.649901813443364,51.491021504551945,-34.82425726509097,17.114087093293453,17.285272367043586,72.512,-0.22628170006163373,1
15.96776964291053,-31.015619805973742,-36.50357805061626,51.721026947604244,-31.859828273707016,14.931157448788628,16.759072090993634,72.516,-0.22228170006162884,1
13.80979023576747,-25.783171040816356,-39.57784862827815,51.30423366317261,-26.540892272912178,11.502553409842967,15.285334633223632,72.52,-0.21828170006163816,1
12.814590099949099,-22.164238411942804,-42.224618480235485,50.76725775619408,-22.991367660542565,9.337797211572363,14.460579485005349,72.524,-0.21428170006163327,1
13.756571142886383,-22.32099057822543,-43.48039754827856,50.58342789599447,-23.56139532268413,9.76427321933482,15.258511190972467,72.528,-0.21028170006162838,1
16.068367969836334,-25.77984374788158,-43.43809200327659,51.01351207294272,-27.749022074815816,12.293592322199904,17.591485460995038,72.532,-0.2062817000616377,1
18.3034016873126,-30.045573565941297,-42.86210833414638,51.92701257373355,-32.83161049465173,15.156202727584608,20.35267540610865,72.536,-0.20228170006163282,1
19.07840442872092,-32.12449503240295,-42.559578746546755,52.74893274307242,-35.5406054330333,16.464316033009716,21.93302600717994,72.54,-0.19828170006162793,1
17.876431501271334,-30.124598389717733,-42.98341807857439,52.727852439465366,-33.85376962765334,15.267199738182478,21.090302417026287,72.544,-0.19428170006163725,1
15.259392942969498,-24.216892465411505,-44.17388262182016,51.458130385279354,-28.060946083349652,11.97474397149887,17.7594538708336,72.548,-0.19028170006163236,1
12.435374557845321,-16.512448861862666,-45.87038954066722,49.268223509544924,-20.56540906056569,8.01270116989798,13.231948225807367,72.552,-0.18628170006162748,1
10.508240698671566,-9.901448077567142,-47.627836973233066,47.09949962196276,-14.490969659496319,4.966885208209547,9.445629181452679,72.556,-0.1822817000616368,1
9.896442157118072,-6.509692605135314,-48.91644182052231,45.905304024771915,-11.908739200628265,3.7358299494240024,7.79729749497192,72.56,-0.1782817000616319,1
10.258239319366394,-6.715678646886758,-49.2634989686228,46.024546541200785,-12.821857652598325,4.189426765099656,8.328822642441052,72.564,-0.17428170006164123,1
10.899344941410652,-9.282724898177566,-48.45011083639668,47.007426324498326,-15.531086488233006,5.482607872846906,9.874543084051377,72.568,-0.17028170006163634,1
11.31652742644469,-12.340120753767089,-46.684919370755495,47.97600417776009,-17.967690473205998,6.715487889515065,10.984711104008765,72.572,-0.16628170006163145,1
11.483780239999916,-14.416116715461978,-44.62644431673816,48.18504950600616,-18.922330685548538,7.433259041731596,10.862802930011016,72.576,-0.16228170006164078,1
11.741154960631105,-14.9425807195059,-43.151747190221286,47.387302429973346,-18.408022983841956,7.692490173466741,9.681403329497968,72.58,-0.1582817000616359,1
12.473200865319063,-14.284791988940032,-42.8889734312217,45.87740708674265,-17.289533102089713,7.8438536984075355,8.26883687178221,72.584,-0.154281700061631,1
13.879902837042406,-13.644310269279504,-43.7303828893749,44.342746842182926,-16.827840630065904,8.359097618010933,7.620786491484029,72.588,-0.15028170006164032,1
15.972036239305346,-14.855279526121503,-44.69907422139625,43.64315610565838,-18.450471124665977,9.801867306295009,8.587765220925014,72.592,-0.14628170006163543,1
18.6677080072121,-19.705315479525197,-44.44676275805999,44.49886210498395,-23.41700487819289,12.719254720393712,11.683258283188307,72.596,-0.14228170006163054,1
21.798979108062657,-28.69255850388111,-42.22855126616909,47.080699682423855,-32.02804465886572,17.255618829490032,16.81385680893938,72.6,-0.13828170006163987,1
25.01352351748664,-39.99003534590338,-38.69409737521182,50.720232645168394,-42.7793903381416,22.701232967954247,23.028533928647505,72.604,-0.13428170006163498,1
27.759321548178832,-49.82117979871268,-35.749892385503465,54.089607662954414,-52.484707523386874,27.513720318946476,28.69313017752328,72.608,-0.1302817000616301,1
29.514792458267454,-54.61227104469699,-35.34844866049527,55.942174682561806,-57.90323903869502,30.105466326740824,32.301525276317186,72.612,-0.1262817000616394,1
30.16397770950814,-53.630960034016624,-37.98337120698859,55.979655860595585,-57.995519397252494,29.972305340460963,33.49391172769301,72.616,-0.12228170006163452,1
30.18411082532418,-49.91652939864259,-42.103341435974855,55.13484015783648,-54.955736560240325,28.232586852541342,33.42406955915578,72.62,-0.11828170006162964,1
30.386682776838153,-48.330836954244624,-45.07325621342041,54.91661190697003,-52.83535868215362,26.958750381386167,33.97740678462429,72.624,-0.11428170006163896,1
31.319778949379668,-51.91753833250229,-45.06549133598239,56.2414450086825,-54.5460653675782,27.667491875505377,36.30037920249533,72.628,-0.11028170006163407,1
32.78109747568451,-59.4064437075827,-42.41205396677199,58.68008855112695,-59.57421012247829,30.133019747017887,39.79850202300365,72.632,-0.10628170006162918,1
33.874198443356384,-66.00240657694843,-39.30654812421994,60.762521817573635,-64.33089400848168,32.52299012484424,42.48013832387577,72.636,-0.1022817000616385,1
33.636188604732205,-66.97197524443789,-38.081982619072775,61.10751949202301,-64.92532963580679,32.80059855349465,42.43498084906758,72.64,-0.09828170006163361,1
31.793289055069547,-61.210987931453616,-39.464206880876056,59.446835781975615,-60.132501222173104,30.288097613508256,39.279473583949354,72.644,-0.09428170006162873,1
29.059881952994036,-51.98440395707873,-42.18303904173518,56.72660224045574,-52.20532854353719,26.159782468663526,34.4265048802378,72.648,-0.09028170006163805,1
26.72122038234511,-44.367386438409234,-44.150307825636574,54.27870234061597,-45.02356642044045,22.523550627543358,30.01778733398181,72.652,-0.08628170006163316,1
25.78480031666137,-41.550486032654106,-44.142487095022155,52.82265569242303,-41.22274691526803,20.876280608454458,27.431983425405452,72.656,-0.08228170006162827,1
26.323183629929478,-42.89852889487526,-42.638035607000155,52.11584192679868,-40.588257438110055,21.141683472019924,26.5441129112374,72.66,-0.0782817000616376,1
27.493180154597535,-45.02011446136784,-41.29333928495931,51.42740520128163,-40.75011745939699,21.939965695874744,26.20302015397023,72.664,-0.0742817000616327,1
28.2035556820463,-44.66019903542579,-41.6550498978633,50.29971269571995,-39.312121975510514,21.744220153592977,25.379882377440396,72.668,-0.07028170006162782,1
27.910532017356775,-41.01887833593547,-44.14539411078004,48.907875224379865,-35.608954424204754,19.975762895761093,23.979056733422517,72.672,-0.06628170006163714,1
26.932844090337067,-35.908153917678234,-47.91258397573425,47.79127508088355,-30.891810627730734,17.27961834743479,22.708811002487803,72.676,-0.06228170006163225,1
26.06994049702904,-32.03865597390919,-51.39384096014174,47.31564372489169,-27.14059820045603,14.929273225420852,22.25823768716535,72.68,-0.05828170006162736,1
25.87011384446944,-31.04429634295323,-53.07280154556577,47.396588323602195,-25.65440624991064,13.924524844737693,22.58027712562032,72.684,-0.054281700061636684,1
26.1725430899092,-32.70916016966066,-52.057859072337344,47.68827133957547,-26.456894777732845,14.44630073737354,22.916798852872642,72.688,-0.050281700061631796,1
26.30254937733863,-35.66330900619449,-48.38573685517775,47.98521336833417,-28.708573274966735,15.954086643913561,22.51576974675262,72.692,-0.04628170006164112,1
25.730026428097187,-38.680156016599234,-43.02745825724675,48.4262656636047,-31.545739225188477,17.715955958955817,21.38110544837676,72.696,-0.04228170006163623,1
24.591579490257672,-41.457021475702724,-37.52052328876908,49.32085342228484,-34.60354705962264,19.306595760319173,20.362063151232753,72.7,-0.03828170006163134,1
23.59038576737631,-44.37805680575651,-33.26387059380486,50.7748968494545,-37.88524401197025,20.71660577887097,20.445283015829833,72.704,-0.03428170006164066,1
23.33813864333637,-47.621365662324386,-30.82637295046518,52.454122374905296,-41.19943651702149,22.054056738700435,21.80085737286895,72.708,-0.030281700061635775,1
23.712568775671535,-50.435204188719496,-29.78525378593163,53.68867567074863,-43.70585800236451,23.134180253409355,23.390891277186125,72.712,-0.026281700061630886,1
23.817056642195173,-51.22984016314932,-29.298376526419577,53.85326527735651,-44.02913351027307,23.336734711868136,23.55029356842215,72.716,-0.02228170006164021,1
22.622855574940495,-48.511013471456735,-28.982316976578485,52.77152023493421,-40.99857826347042,21.910355983905117,21.187176917725804,72.72,-0.01828170006163532,1
19.786116778128665,-42.04744415144804,-29.310968689499276,50.89134093121451,-34.587170121507405,18.550958573445953,16.71716667966558,72.724,-0.014281700061630431,1
15.970758441979314,-33.42169296623258,-31.104767291325448,49.114940211838466,-26.358774655345986,13.823496041081594,11.976040218004643,72.728,-0.010281700061639754,1
12.40901991424444,-25.44347312583338,-34.51152484215492,48.350095522289436,-18.929683398876854,9.043515659694203,9.082050270637065,72.732,-0.006281700061634865,1
10.047053514554662,-20.650289814253448,-38.423183129478026,49.00460758315891,-14.587253355395474,5.5980804664129655,9.010984735000427,72.736,-0.0022817000616299765,1
8.93997795811522,-19.816949079731994,-40.965773694659745,50.71325099894277,-13.901346287104142,4.126626056417585,10.904214048020329,72.74,0.0017182999383607012,1
8.338235931920384,-21.516233556402376,-40.766114012973226,52.50244042449127,-15.350299283257078,4.153593344677055,12.638377151544013,72.744,0.00571829993836559,1
7.352888707929143,-23.121088286542047,-37.97994600554564,53.353006958307446,-16.369623575557682,4.4793768658932285,12.285385335515583,72.748,0.009718299938370478,1
5.654339461347836,-22.596077332948955,-34.232249176231576,52.83425288909911,-15.157696822825566,4.063086189968018,9.434344791591151,72.752,0.013718299938361156,1
3.6703840697224934,-19.777437140371454,-31.526683490431175,51.371601278396916,-11.881896387585861,2.71879395609024,5.425237714178861,72.756,0.017718299938366044,1
2.168364107680955,-16.18332734903745,-31.00532398538483,49.92330646365753,-8.306418571122256,1.0763665195360872,2.3270328146700012,72.76,0.021718299938370933,1
1.5952685599607233,-13.567741469457493,-32.46407382279224,49.278587904435575,-6.1495595208498255,-0.12063140657411822,1.428149755277412,72.764,0.02571829993836161,1
1.7347793050677784,-12.508384305526953,-34.80074346957131,49.5171235292437,-5.632986972393378,-0.7050574400130714,2.395269353193257,72.768,0.0297182999383665,1
1.9782168268124611,-12.322637438447707,-36.81437781192593,50.0799181358275,-5.6100609106384525,-1.0742832833051383,3.76322448167729,72.772,0.03371829993837139,1
1.9890202338838,-12.406978352755532,-37.661775725035255,50.408469930694714,-5.2500469911108025,-1.4460817828790398,4.367392687202151,72.776,0.037718299938362065,1
2.172605690736167,-13.67815705613921,-36.8089732796839,50.59899251539297,-5.680827619145325,-1.1271766351072,4.523536383946528,72.78,0.041718299938366954,1
3.471101528893229,-18.49442063329927,-33.87817592318669,51.450261381414606,-9.769769643535096,1.3309032161529675,5.890100073560292,72.784,0.04571829993837184,1
6.553013513624265,-28.70587310159476,-28.80975017740652,53.77353027787874,-19.777369587028147,6.9650188989645825,10.001430175561868,72.788,0.04971829993836252,1
11.035769627970843,-43.32296247809143,-22.26649356323224,57.50154383455736,-34.70190086854807,15.122000699805568,16.632042747538005,72.792,0.05371829993836741,1
15.453786622198527,-58.00163067694451,-15.770496096773684,61.39479800124123,-49.80031592169233,23.288512303702657,23.435345768268135,72.796,0.0577182999383723,1
18.125272213537144,-67.2733806626018,-11.180383945511743,63.716968816381964,-59.183037038899194,28.443893372459094,27.35066724463454,72.8,0.061718299938362975,1
18.30195109456767,-68.12301924718918,-9.708792372869873,63.446751479955225,-59.74950519043413,29.036642925496096,26.795971310474208,72.804,0.06571829993836786,1
16.683498871267133,-62.156905793787935,-11.174987262141029,61.08332606683161,-53.37604784673305,26.036824612951637,22.904291351611636,72.808,0.06971829993837275,1
14.860984201641752,-54.5299256211438,-14.092810200194041,58.353966583174945,-45.516035102538495,22.186180078144726,18.737640060914906,72.812,0.07371829993836343,1
14.138467451847522,-50.348906836034175,-16.571817793518303,56.983480548206295,-41.25774435134982,20.026338328783673,17.030182652064806,72.816,0.07771829993836832,1
14.689771127841118,-51.2977953835442,-17.400572520359365,57.45214694724945,-41.93387234627361,20.26273222434121,18.2275899507454,72.82,0.081718299938359,1
15.680643737589048,-55.001983528891095,-16.588483011956434,58.71057698987144,-44.83012486900187,21.67039371730029,20.35897696508865,72.824,0.08571829993836388,1
16.13476382450256,-57.39517328589311,-15.093095057016233,59.080760432507965,-45.93535143521834,22.422255497817297,20.78584002329988,72.828,0.08971829993836877,1
15.734034401541662,-56.02702010952039,-14.040250520237715,57.63967482551223,-43.30509534745781,21.619156782102454,18.379499968059562,72.832,0.09371829993835945,1
14.925634411499136,-51.74955838023742,-14.012319889256538,55.00240156343847,-38.408859208781465,19.82987615198803,14.412825351349792,72.836,0.09771829993836434,1
14.410231875678765,-47.75615742351405,-14.818709453637414,52.894078497798155,-34.721005117437386,18.431229712288104,11.560331908823818,72.84,0.10171829993836923,1
14.5913925953079,-47.038629457786506,-15.786212106782452,52.840840075520354,-34.98994923697134,18.493757495390053,11.888800635321989,72.844,0.1057182999383599,1
15.435486597573918,-50.276365055196884,-16.299452329434917,54.97900906273381,-39.32679329775333,20.105216493607678,15.382898528469754,72.848,0.1097182999383648,1
16.672929440767156,-55.495752059563884,-16.226411640020974,57.87491230160923,-45.25697953302577,22.446746563134788,19.984554927099456,72.852,0.11371829993836968,1
17.97178445858197,-59.412880786403136,-15.971545151263514,59.476676304106746,-49.336421209379104,24.3271384709821,22.94524791337493,72.856,0.11771829993836036,1
18.913790557472854,-59.38266637011064,-16.137262893265518,58.4921563653937,-49.09439592730889,24.745690182216343,22.462688085602174,72.86,0.12171829993836525,1
18.978819136794566,-54.80233038716642,-17.037368894735444,55.2173328717507,-44.2304698890898,23.28229134096029,18.591725821486104,72.864,0.12571829993837014,1
17.789502829732694,-47.34081159379193,-18.435105054959703,51.28548504673049,-36.63246958394977,20.28405612111601,13.049342235122191,72.868,0.12971829993836081,1
15.505079919632161,-39.99360713500338,-19.734413948473602,48.590626104100586,-29.34807257015841,16.775733398935806,8.20465423096683,72.872,0.1337182999383657,1
12.931783375934424,-35.47462347123412,-20.48350630862937,48.16849253226823,-25.02145328112577,14.005261618363985,5.874045534422616,72.876,0.1377182999383706,1
11.082273834736137,-34.791475440800454,-20.747258692732558,49.747211071405424,-24.562736757205904,12.765682096318296,6.5063038882790725,72.88,0.14171829993836127,1
10.462323455004196,-36.830656524168674,-20.986708017311543,52.133613686838906,-26.804301959627182,12.931383289146186,9.094346070118116,72.884,0.14571829993836616,1
10.708370794376023,-39.226053876075476,-21.54285904098814,54.03288495057813,-29.387604799924222,13.606667900784474,11.808594071249217,72.888,0.14971829993837105,1
10.928405552236336,-39.91718876008948,-22.242308624112194,54.7116725067583,-30.292009929232474,13.810295092817098,13.001134161622419,72.892,0.15371829993836172,1
10.445796068107304,-38.28489676309643,-22.56626794636153,54.165707511241514,-28.92117455283224,13.134384358928127,12.026451324013257,72.896,0.1577182999383666,1
9.272406835997565,-35.111560776380784,-22.258426110369278,52.86565788593226,-26.0351488075016,11.841342861200237,9.425728111121597,72.9,0.1617182999383715,1
7.927019112606023,-31.610756701514966,-21.73985301112217,51.39025222445715,-22.801434256846964,10.412279248316175,6.422493384104769,72.904,0.16571829993836218,1
6.861047729790206,-28.504559167271257,-21.82114023583904,50.193548531585485,-19.926389112326348,9.074543248376344,4.122949005684636,72.908,0.16971829993836707,1
6.090973119752735,-25.904681935984886,-22.90907913785362,49.541666054214765,-17.56549497044255,7.77617435685622,2.9704425134573524,72.912,0.17371829993837196,1
5.350777522100728,-23.841254411795934,-24.49785185908289,49.52143145125045,-15.81536333975943,6.52791420769486,2.7543464295922173,72.916,0.17771829993836263,1
4.514151297836895,-22.651286041144733,-25.543366770713032,50.05309847978589,-15.029866467113736,5.621879521896842,3.0353899794518906,72.92,0.18171829993836752,1
3.798689791431704,-22.73339996406751,-25.448761352308708,50.93026147402089,-15.546882004962464,5.419325412986886,3.5807666428992335,72.924,0.1857182999383724,1
3.56114146700965,-24.016018311413205,-24.69680461509662,51.92454624525071,-17.211620256682295,5.951857224847001,4.486898246084801,72.928,0.1897182999383631,1
3.9521822487930076,-25.89396436118679,-24.414372907030735,52.91774326922883,-19.391355486645974,6.848191588171291,5.981575648670395,72.932,0.19371829993836798,1
4.816222976929166,-27.87747401955827,-25.183609515564704,53.966084274424944,-21.62477555263483,7.751667531123339,8.151884305280383,72.936,0.19771829993837287,1
5.910050475127241,-30.32526217958105,-26.226377744144497,55.24350348391099,-24.261426898711285,8.810783847552575,10.848729015846056,72.94,0.20171829993836354,1
7.156664921730737,-34.38627317837556,-25.833259205692308,56.90859607959721,-28.328768992932446,10.67119230229774,13.811848073374659,72.944,0.20571829993836843,1
8.63954503495448,-40.980852970245216,-22.77162731907403,58.983162710622345,-34.586021981977,13.874122802598897,16.841671723120538,72.948,0.2097182999383591,1
10.354285026810565,-49.61662961834916,-17.46609589076173,61.28387391570771,-42.53838786355907,18.180368485387664,19.802585944764047,72.952,0.213718299938364,1
12.001969204023714,-58.08947960762668,-11.906719710040774,63.39723995606779,-50.2674430784779,22.449098015601255,22.415335220452626,72.956,0.2177182999383689,1
13.056388704694982,-63.42963626293338,-8.346897787379225,64.71606978814285,-55.25351811389756,25.209129917008102,24.048463754364274,72.96,0.22171829993835956,1
13.062319328798486,-63.49272087827578,-7.857399568796214,64.61560902695291,-55.63442353023224,25.483427219803694,23.82318840174917,72.964,0.22571829993836445,1
11.930714689458387,-58.18852277821928,-9.818767570862033,62.799373009191285,-51.174826602180694,23.3024945246323,21.14953472798007,72.968,0.22971829993836934,1
10.042257013360125,-49.67082327732027,-12.561723156684065,59.65068037267658,-43.53597563056289,19.676073000066953,16.399511678463565,72.972,0.23371829993836002,1
8.130259496721687,-41.43351377600095,-14.488026343937646,56.2657809979702,-35.76269943262989,16.156843199250797,11.131355858625811,72.976,0.2377182999383649,1
7.003783025740834,-36.72480176437693,-14.852353605506355,53.9649276823831,-31.06444367011145,14.21837746416831,7.454510867702518,72.98,0.2417182999383698,1
7.183226731109317,-36.94766251677907,-13.88432835904092,53.49050303099965,-31.21757341558571,14.607156301917362,6.768678227379383,72.984,0.24571829993836047,1
8.570567784666009,-40.84620617000363,-12.449486476607612,54.47149239809571,-35.37641089330682,16.884446097036584,8.74559726011978,72.988,0.24971829993836536,1
10.370431153780293,-45.11671218954466,-11.559312719876916,55.65289611809342,-40.2798657992619,19.5022096518373,11.430353784972473,72.992,0.25371829993837025,1
11.442134457699382,-46.36594533062618,-11.88776251819021,55.81171871806034,-42.16241767881533,20.611196725379482,12.551075626492523,72.996,0.25771829993836093,1
10.979300533096913,-43.30025682859369,-13.404467725387061,54.66640625188335,-39.3045026324144,19.25100614356107,11.112514257853823,73.0,0.2617182999383658,1
9.06895080807056,-37.5453058664171,-15.341032748273914,53.02102505435988,-33.28095416504868,16.06388119300395,8.013435724305305,73.004,0.2657182999383707,1
6.6545837303387225,-32.31553892455178,-16.657000637955356,52.007505497578705,-27.71370726674633,12.848640268281216,5.175517333054836,73.008,0.2697182999383614,1
4.865060194121365,-29.886391082379067,-16.79413146640371,52.08425716941302,-25.391457786399585,11.19185605883435,3.9308069128136536,73.012,0.27371829993836627,1
4.233146698163425,-29.9748959699988,-16.124536314731788,52.68458814540655,-26.183568910037284,11.297998272563486,4.067268078634447,73.016,0.27771829993837116,1
4.459395765008988,-30.454186954030458,-15.623140966414777,52.82921758238554,-27.606127693425453,12.05771304258305,4.337129223893118,73.02,0.28171829993836184,1
4.889608963025972,-29.721285176654266,-15.973495186743433,52.13108836696672,-27.49911038631807,12.282267673128706,3.8909257465943736,73.024,0.2857182999383667,1
5.20472478572757,-28.432967174783734,-16.92401424592965,51.24846227992457,-26.249068055388282,11.908360982076404,3.2445014283731273,73.028,0.2897182999383716,1
5.636196555873625,-28.864976302255933,-17.557567538856286,51.34425206783844,-26.374198165726447,11.982154716332039,3.8341386667945536,73.032,0.2937182999383623,1
6.523656581845775,-32.45139639582023,-17.261789382564654,53.02711058739579,-29.832143665010932,13.432942860053489,6.561619414100773,73.036,0.2977182999383672,1
7.724104919613814,-37.922433469904895,-16.437909721630696,55.73018052679423,-35.68425759426686,15.8829466375544,10.707368701840034,73.04,0.30171829993837207,1
8.546964963454132,-41.984217522191834,-16.17922265292077,58.08444287620009,-40.483174243479276,17.74888731832511,14.266319260612576,73.044,0.30571829993836275,1
8.340484437761152,-42.04150416717341,-17.17238153937975,58.94835366772973,-41.13545038088319,17.61639610017339,15.444101881772093,73.048,0.30971829993836764,1
7.149268202246668,-38.42122906377009,-18.914376034025434,58.196487681549975,-37.563680631558476,15.566005916378703,13.98752392917867,73.052,0.3137182999383725,1
5.74008276310008,-33.96098484245137,-20.098094952031538,56.63908356888354,-32.64686408625055,13.122854825401957,11.203922723347901,73.056,0.3177182999383632,1
4.907909292886751,-31.33913801880423,-19.875277721243723,55.24856262826888,-29.521295502265883,11.833002443585302,8.746236877572931,73.06,0.3217182999383681,1
4.7189269282034365,-30.703118335420633,-18.78323627564254,54.44312528245532,-28.839436391977905,11.831272444879968,7.332466347502366,73.064,0.32571829993835877,1
4.4588411455316805,-29.86267729751255,-18.373856240287594,54.02230503416278,-28.57348360483186,11.80261205427486,6.526258908662694,73.068,0.32971829993836366,1
3.391707346673812,-26.833512558876006,-19.80718459555079,53.67711773389745,-26.460334424088735,10.399207660174971,5.632998837769318,73.072,0.33371829993836855,1
1.630513472303917,-22.251905648328027,-22.686688170245926,53.47940775514747,-22.654928574058058,7.761031242791377,4.722569922389267,73.076,0.3377182999383592,1
0.2657217580722421,-19.302384627444262,-25.228051659062817,53.856651248673906,-20.005313956045388,5.666556844258096,4.746820391548253,73.08,0.3417182999383641,1
0.5608076614888119,-21.14997980338557,-25.6436617120933,55.11998410189488,-21.659572538631803,6.118669632044571,6.65375265868244,73.084,0.345718299938369,1
2.888446865738093,-28.18208437809411,-23.54182007582726,57.054857097998614,-28.21600691542479,9.620695012029094,10.37591239358038,73.088,0.3497182999383597,1
6.339732599763395,-37.49843319435738,-20.175014229567047,58.99294993984546,-36.9978693849518,14.667625609458536,14.67100865980884,73.092,0.35371829993836457,1
9.355407707776715,-45.02215974123754,-17.426140502483882,60.29334408986242,-44.03993109053017,18.865791750336935,17.973687786275537,73.096,0.35771829993836946,1
10.84315535339981,-48.33708150620793,-16.472407970243005,60.774745627742305,-46.97236868710625,20.67368397656732,19.490273205847764,73.1,0.36171829993836013,1
10.854857375317355,-47.91924851369255,-17.193263461452894,60.71982098403011,-46.3633083103022,20.309811623926425,19.591330302173812,73.104,0.365718299938365,1
10.322824053101098,-46.036909766534095,-18.608367076866582,60.50272685469179,-44.63421856472031,19.211728271188097,19.242216229140045,73.108,0.3697182999383699,1
10.175683675686649,-44.611843922487886,-19.765046853104163,60.23104451499003,-43.80157747694296,18.697175222765253,19.074564839093117,73.112,0.3737182999383606,1
10.631874702699896,-43.95739857217046,-20.301444753782423,59.72928551890553,-44.08047189249684,19.02969592868223,18.94845906816209,73.116,0.3777182999383655,1
11.217005923655362,-43.19446866157124,-20.405280156965482,58.82505555329178,-44.3047321248334,19.5459842163776,18.31643525004539,73.12,0.38171829993837036,1
11.359227626845914,-41.54891372187896,-20.46130650413599,57.614264558846195,-43.39474852853484,19.492662743400256,16.938813825457455,73.124,0.38571829993836104,1
10.937802966829288,-39.151562417436224,-20.796828959256853,56.44383377869323,-41.36337862294452,18.69868969706013,15.231443557054982,73.128,0.38971829993836593,1
10.298683893929846,-36.739319043975776,-21.629333375557692,55.65840820190613,-39.08936768610206,17.551802422146448,13.94912558765313,73.132,0.3937182999383708,1
9.814443801239621,-34.826103396946145,-23.042798108580435,55.377071995937705,-37.37009547370389,16.49062134825478,13.556859833798372,73.136,0.3977182999383615,1
9.487536383204331,-33.29281792556946,-24.880820157700768,55.48753365037847,-36.29949442608552,15.612305474607785,13.885757001165173,73.14,0.4017182999383664,1
8.991327862553401,-31.703151006218572,-26.698574612302274,55.78865818744532,-35.43679037566587,14.730433107099891,14.328096837088099,73.144,0.4057182999383713,1
8.063887678222908,-29.81358205439983,-27.98181064424755,56.07749887282679,-34.32910109231981,13.68212778831832,14.3009794515992,73.148,0.40971829993836195,1
6.820563005159345,-27.63741914274138,-28.5776326385157,56.10694694282781,-32.72411705705223,12.473455531967671,13.538203358354513,73.152,0.41371829993836684,1
5.6729227935441715,-25.088393470493617,-28.96583031662516,55.56405519926313,-30.394571693655266,11.14241973645293,12.069397751513831,73.156,0.41771829993837173,1
4.973820565408186,-21.83343648382899,-30.02366067521694,54.245000492036944,-27.093359728557907,9.615789309685185,10.115846520473537,73.16,0.4217182999383624,1
4.777873309018698,-17.76663047683256,-32.35956692904242,52.35786927878863,-22.988315850488316,7.847402573622013,8.131368094933988,73.164,0.4257182999383673,1
4.935688037687681,-13.670644427228245,-35.73200529137029,50.62855280072511,-19.155770539566984,6.126380331060796,6.86779908869194,73.168,0.4297182999383722,1
5.341030961784936,-11.14772942592986,-39.07585776315594,49.95029780711605,-17.30955452983549,5.118007061773946,7.123805888246375,73.172,0.43371829993836286,1
5.986641197192171,-11.482987450930015,-41.173646267777926,50.72764442938336,-18.568542655943915,5.395907444666054,9.114983303410316,73.176,0.43771829993836775,1
6.750254586314407,-14.29646832921343,-41.45508327787414,52.447453217235775,-22.212194523580546,6.807701602412393,11.958336724705575,73.18,0.44171829993837264,1
7.218443393898451,-17.378682361962447,-40.29647087821365,53.935287031501645,-25.76567085863389,8.350233368020426,13.936860305389475,73.184,0.4457182999383633,1
6.884909056844028,-18.21553524146143,-38.62667243720378,54.19970818771823,-26.724546332525765,8.85271623828206,13.629420528346694,73.188,0.4497182999383682,1
5.641573122878816,-16.072351894824767,-37.22764342972311,53.20424165461545,-24.601004757656632,7.95882948561965,11.096355819090634,73.192,0.4537182999383589,1
4.061501958862538,-12.737148217702897,-36.320511448459584,51.89147265487276,-21.4020825438374,6.483880304605842,8.022887291658764,73.196,0.45771829993836377,1
3.069607145803471,-11.06488507458311,-35.699984209717265,51.39736173613637,-19.92220383048043,5.719801921529714,6.500302311311282,73.2,0.46171829993836866,1
3.1958737502926224,-12.495182505655745,-35.16297107862973,52.11131275105018,-21.287618472318705,6.269476164967339,7.369109390294071,73.204,0.46571829993835934,1
4.104369097256962,-15.798958584438099,-34.76011511016623,53.393184281608136,-24.022983338860154,7.515237470034228,9.569266184565185,73.208,0.4697182999383642,1
4.912155681356234,-18.2800200953278,-34.646864304607995,54.18316221494954,-25.57088179665849,8.27392162703181,11.128526673256731,73.212,0.4737182999383691,1
5.058288119150786,-18.381993436454916,-34.739120666924286,53.94902857306988,-24.87172952651007,8.043443472073458,10.942083465595179,73.216,0.4777182999383598,1
4.899168648522234,-17.28876657592233,-34.564014495359025,53.13305258741584,-23.558387718868502,7.633708584769795,9.745238969442022,73.22,0.4817182999383647,1
5.426419577960313,-18.010347122081455,-33.49380426737756,52.737660254448635,-24.61573404718864,8.540144960934134,9.41566064330459,73.224,0.48571829993836957,1
7.35372713430701,-22.78066009232081,-31.19573376016047,53.465293865273175,-29.76279295231867,11.627640979727499,11.292524825492293,73.228,0.48971829993836025,1
10.450018855359895,-31.122227644738604,-27.961374716815413,55.18325453250654,-37.97923003533656,16.34816296604687,15.081396042977286,73.232,0.49371829993836513,1
13.749545958054824,-40.21877088601734,-24.69971513223013,57.12425355618573,-46.40957068477224,21.170658430121197,19.283598758657956,73.236,0.49771829993837,1
16.385273241783594,-47.054170579959774,-22.61235525117455,58.54565080189169,-52.58657510076548,24.72803937999097,22.594137508233555,73.24,0.5017182999383607,1
18.183274155843552,-50.28516491858883,-22.705856609975687,59.214546207259644,-55.822799956946135,26.575252811824647,24.840748310582818,73.244,0.5057182999383656,1
19.45620397464474,-50.37295971321418,-25.313708901115174,59.349671271468246,-56.72056181366586,26.98027765549929,26.621077526382965,73.248,0.5097182999383705,1
20.318775338957757,-48.35473808697543,-29.81130058663704,59.209020941639004,-55.76341181847822,26.21632513976488,28.18532907172908,73.252,0.5137182999383612,1
20.36652906778781,-44.8208241265198,-34.733249476545915,58.79939804084545,-52.738332741153286,24.261323046898397,28.86515618868737,73.256,0.517718299938366,1
19.143713592374425,-40.07240321764291,-38.40045899802198,57.966884766917275,-47.566847429475644,21.214627852979675,27.714483432869166,73.26,0.5217182999383709,1
16.9120391213642,-34.90195941902489,-39.83829718322706,56.693647998027345,-41.38457116115773,17.822157833810067,24.69698281020809,73.264,0.5257182999383616,1
14.811582634517256,-30.72278130390229,-39.41108208031508,55.23906444801223,-36.35085155862091,15.309634636239055,21.124433224069755,73.268,0.5297182999383665,1
14.07312788635164,-28.624573944519916,-38.60829355386384,53.976578157713334,-34.0859624801717,14.492983016802523,18.776140917687993,73.272,0.5337182999383714,1
14.945807138391253,-28.32292222839714,-38.973467611113094,53.11874840871277,-34.257891925441974,15.02182696412381,18.467899253724394,73.276,0.5377182999383621,1
16.396582221488703,-28.281586636120846,-40.908458295395086,52.61987646656823,-34.863901462177104,15.611589828807297,19.425897876828817,73.28,0.541718299938367,1
16.962993873262562,-27.105560891837367,-43.33220716791346,52.32387277472174,-34.07888132672604,15.165659592096393,20.064123146396184,73.284,0.5457182999383718,1
16.030121404670023,-24.885058571190616,-44.56719269400935,52.15462068713195,-31.90701803050069,13.752799218213957,19.421727985684733,73.288,0.5497182999383625,1
14.357364975613223,-23.083382067625067,-43.78817355347975,52.124619278555734,-30.005375044046506,12.48167390412833,17.91327250685407,73.292,0.5537182999383674,1
13.361624980631774,-22.9827967998916,-41.81306093835309,52.17057002752534,-29.851184302249234,12.369779034140297,16.74506799819652,73.296,0.5577182999383723,1
13.824832476078258,-24.2005445832432,-40.5173980877429,52.040838417654896,-31.079086389393026,13.293588459721622,16.637769706924356,73.3,0.561718299938363,1
15.220507876466009,-24.804504325407805,-41.33462976480961,51.41823480736085,-31.656729224179013,14.040395443256694,17.116725187312895,73.304,0.5657182999383679,1
16.25427540464948,-23.03046025887671,-44.11576443989123,50.20757909173283,-29.771538255893226,13.4255244652003,17.030383993078566,73.308,0.5697182999383728,1
16.078443620395685,-19.028379730564545,-47.30770750520464,48.72061045575883,-25.652758462505773,11.428727733852995,15.761063888267447,73.312,0.5737182999383634,1
15.046406648528954,-14.986269674624436,-49.24297706518637,47.555942948048106,-21.62627049005189,9.301875743568875,13.951291889716774,73.316,0.5777182999383683,1
14.342578012460981,-13.457910976621637,-49.3850842438508,47.234163903117,-20.343014628173265,8.563452088850402,13.045815844217346,73.32,0.581718299938359,1
14.870487536911815,-15.328004467329999,-48.50287415655882,47.856951096280824,-22.722030915050336,9.778352899016145,14.047118006730399,73.324,0.5857182999383639,1
16.42125976663456,-19.10793853841216,-47.78612533382427,49.033020519023026,-27.274442685621953,12.135956155631176,16.578270116569644,73.328,0.5897182999383688,1
17.83400817875089,-22.034579676828507,-47.84803070292774,50.101681218330036,-31.18546337258014,14.07680106860489,19.055583286650588,73.332,0.5937182999383595,1
17.95258462527311,-21.957652053262752,-48.52047187345645,50.48457428346106,-32.132852669982995,14.356375170704881,19.817442517263142,73.336,0.5977182999383643,1
16.528635994453776,-18.55346372679384,-49.44959528991636,49.9533453107182,-29.494986806081386,12.722255241876596,18.293809275743023,73.34,0.6017182999383692,1
14.355136822634812,-13.193348263803845,-50.68963505843047,48.69748146573679,-24.369125262518878,9.86258640875495,15.336903887626661,73.344,0.6057182999383599,1
12.62425513690796,-7.912463599293662,-52.58443389729471,47.198277148797715,-18.762457755911072,6.888532599657526,12.548290367136248,73.348,0.6097182999383648,1
12.11035979345778,-4.371299796305502,-55.08281394032099,45.98496130503878,-14.632872502708594,4.804451930685963,11.187213210152585,73.352,0.6137182999383697,1
12.798376691569002,-3.3263324176731213,-57.32834459630409,45.377405844931594,-13.169768044955493,4.188977362515854,11.459685159916278,73.356,0.6177182999383604,1
14.107362677205112,-4.5640783150018365,-58.13782327307356,45.3365798489068,-14.397568261101792,5.052779274048507,12.602748049016773,73.36,0.6217182999383652,1
15.390085374428606,-7.102142454900308,-57.03773336534987,45.52679809112017,-17.197883743659,6.838981950224866,13.581894148135543,73.364,0.6257182999383701,1
16.299594683013634,-9.652411044185405,-54.84073897477627,45.59281035979444,-19.92223100954089,8.662692979412862,13.860283006281646,73.368,0.6297182999383608,1
16.860453412971086,-11.36295880718873,-53.0778194537764,45.48917638518784,-21.48422730812162,9.827953906452283,13.747421864475548,73.372,0.6337182999383657,1
17.342860360473004,-12.491022400999,-52.70045502072759,45.59694397959481,-22.257417618058362,10.353921009336792,14.15516969038035,73.376,0.6377182999383706,1
18.085314594751665,-14.348066501261282,-53.25943376602295,46.46181888752504,-23.904114012503307,11.026917325722149,15.937563471788689,73.38,0.6417182999383613,1
19.313173875878213,-18.205981071124437,-53.40930377832582,48.278047533843186,-27.929842154880447,12.746290065600551,19.207615529008798,73.384,0.6457182999383662,1
20.96556495177421,-23.819054852369494,-52.33763585612444,50.51228805510803,-33.94795361528959,15.572461394032214,23.0543299228691,73.388,0.649718299938371,1
22.63248558528166,-28.918744790441938,-50.754061268625534,52.05006751124306,-39.254796426812135,18.334337020337898,25.910712369017,73.392,0.6537182999383617,1
23.750174253125028,-30.552952796773525,-50.38315995095679,51.885656018184875,-40.518592534902275,19.353231628764508,26.465643382558177,73.396,0.6577182999383666,1
24.035264217433056,-27.570108439978302,-52.293203289141104,49.90712705754896,-36.57227261558911,17.885461761234453,24.607731308492056,73.4,0.6617182999383715,1
23.8481249723597,-22.205971146170356,-55.588218582149636,47.149698522100984,-30.005335486390237,15.081487664660218,21.720214055589334,73.404,0.6657182999383622,1
24.08665259183383,-19.0522286595603,-57.81047361984599,45.220024643615176,-25.848604643771598,13.445478083129178,19.959151604599697,73.408,0.6697182999383671,1
25.53395871234228,-21.750250000804886,-56.90056068295858,45.23291541750991,-27.95422481208941,14.97962220184096,20.858539164159737,73.412,0.673718299938372,1
28.111451891463567,-29.914698645458284,-53.06937197692634,47.04191948381514,-35.83234190912095,19.443805541433214,24.219235614793657,73.416,0.6777182999383626,1
30.714537817516774,-38.99632648404228,-48.86331444501423,49.37833434402402,-44.68770118290786,24.27627066317641,28.17819928724715,73.42,0.6817182999383675,1
31.912333668660132,-43.53933858059825,-47.21851585604925,50.81617502614284,-48.92154221386852,26.43365767817009,30.517230277542975,73.424,0.6857182999383724,1
31.037156259620787,-41.35009525353594,-49.09516037108796,50.80675959283346,-46.39694901597229,24.74132793157142,30.256960856570515,73.428,0.6897182999383631,1
28.759032904441735,-35.11412545269485,-52.72514500115247,49.961444053083405,-39.953044034916054,20.795173858220675,28.276663673017566,73.432,0.693718299938368,1
26.606323049371472,-30.054521207912497,-55.1361984959015,49.392766977098084,-34.896452110572675,17.6232703420449,26.464811445872193,73.436,0.6977182999383729,1
25.801238686932066,-29.64837508560765,-54.621703332682735,49.72559319522319,-34.65596546513074,17.24897961958751,26.15023238167836,73.44,0.7017182999383635,1
26.410545527326814,-33.13821297703646,-52.002408477385096,50.65360455164747,-38.375463735611525,19.265784383759986,27.18615072729882,73.444,0.7057182999383684,1
27.54136234749454,-36.933175149067736,-49.63475340787731,51.39522129278083,-42.42689948528376,21.610308419626882,28.44793598232655,73.448,0.7097182999383591,1
28.34700356415391,-38.41139477785018,-49.16166367946689,51.563398871337085,-44.223732525068925,22.706707664328956,29.17968088256604,73.452,0.713718299938364,1
28.849138603331724,-38.428633491422715,-50.107439062305986,51.58420245535698,-44.634965045140405,22.913486526387757,29.824210013792634,73.456,0.7177182999383689,1
29.776176344663174,-40.13096094875444,-50.572431791701156,52.244944094118,-46.72467438405189,23.917901576530696,31.489045109195622,73.46,0.7217182999383596,1
31.60365185616125,-45.294059646192764,-49.27989665715368,53.812835050003414,-52.156971045921026,26.738092860886855,34.576347582215966,73.464,0.7257182999383645,1
33.80476808384074,-51.90393902541952,-46.951577559894574,55.614530179582715,-58.94366554131467,30.377953904943816,38.00192995826147,73.468,0.7297182999383693,1
35.14424341035506,-55.57624120514363,-45.65052635392344,56.550116151250485,-62.950197213700996,32.5642919269817,39.91831328418083,73.472,0.73371829993836,1
34.81002145878201,-53.660636359567455,-46.708391220139305,56.10726312400064,-61.85814323755723,31.934053068760747,39.375833165720586,73.476,0.7377182999383649,1
33.2887144994059,-48.10097821408683,-49.26008506203438,54.91506909836921,-57.718233548606044,29.532443134607476,37.34307009234469,73.48,0.7417182999383698,1
32.063469431002,-44.1091016631677,-50.87227096192826,54.26614359081531,-55.41279674314975,28.052400361484928,36.01215598494346,73.484,0.7457182999383605,1
32.331065672936695,-45.650053307753964,-49.7526015544363,54.998910268267274,-58.25927286211868,29.409949152339532,36.92200263076545,73.488,0.7497182999383654,1
33.92370432798685,-51.88165804831616,-46.47145914530931,56.757941064449625,-64.8661319653192,32.926527833897985,39.611075932610206,73.492,0.7537182999383703,1
35.48332227880219,-57.93447609868364,-43.53434428935789,58.32289093215896,-70.31706355549646,35.90057875109374,42.07909198148307,73.496,0.7577182999383609,1
35.757470526743,-59.36978948097103,-43.15783427444645,58.70614530166222,-70.68544565958076,36.09875350103988,42.65070008555311,73.5,0.7617182999383658,1
34.79154973685626,-56.154692679510724,-45.30749124295807,58.001006510994685,-66.65730006156971,33.83367827780713,41.49324945838045,73.504,0.7657182999383707,1
33.86428625145774,-52.437485736705554,-47.80930849862454,57.20388783687279,-62.823901311562324,31.648693934183417,40.35382752437848,73.508,0.7697182999383614,1
34.21262578521556,-52.40775538157644,-48.37981608077778,57.20646651426205,-63.30269941987419,31.89747985252804,40.773698730222755,73.512,0.7737182999383663,1
35.76801860335353,-56.24058983983379,-46.63104280727422,57.9280815846808,-67.83161036246,34.51253862623541,42.49460419529825,73.516,0.7777182999383712,1
37.12909963812066,-59.971029230194674,-44.21061833337154,58.40064137492549,-71.99769530543207,37.06116095800422,43.588440897947905,73.52,0.7817182999383618,1
36.811558195338804,-59.30452331941736,-43.09062757362425,57.69576058271312,-71.29617995712503,36.98783843100767,42.19617364110705,73.524,0.7857182999383667,1
34.590425556235274,-53.60356764838228,-43.77419286344967,55.79200272769803,-65.11953692738237,33.879370942314786,38.23549821296622,73.528,0.7897182999383716,1
31.67077566248585,-46.24551080136705,-45.137767976662765,53.569501058483766,-56.987935805417294,29.646234857147157,33.48470300533032,73.532,0.7937182999383623,1
29.55649121393532,-41.1805454455977,-45.893658075937374,51.97633482512017,-51.03893359452723,26.579555527528125,30.000755549478704,73.536,0.7977182999383672,1
28.72069888493082,-39.1966786377684,-46.03709879593074,51.19071873156505,-48.31395567082696,25.257463108849695,28.378852379180543,73.54,0.8017182999383721,1
28.32517683260639,-37.528357300763986,-46.760950259763455,50.5643742702663,-46.33716626067007,24.29234759153173,27.444575126793083,73.544,0.8057182999383627,1
27.184777717013933,-33.017946849938895,-48.99286124831015,49.34979183388546,-42.0957227858182,22.006369780423164,25.565591552744678,73.548,0.8097182999383676,1
24.981787671336765,-25.542207693054333,-52.16467176217872,47.470159992037644,-35.254668091614015,18.247374592644793,22.26222529082786,73.552,0.8137182999383725,1
22.55640958015247,-18.29100011803013,-54.559634031602954,45.5940694243412,-28.44970258141349,14.543924346401342,18.60593338015154,73.556,0.8177182999383632,1
21.056153641978735,-14.723283182717816,-54.911586728118245,44.48349458590957,-24.585767140456493,12.554349323085674,16.126639500318586,73.56,0.8217182999383681,1
20.835429018024552,-15.297397785641376,-53.61846674289086,44.27760428372103,-24.01254091942594,12.454419108595545,15.360953037617053,73.564,0.8257182999383588,1
21.178191750747757,-17.160395115950166,-52.33803380913247,44.396429887039325,-24.36918755719365,12.864232754559064,15.428762089930135,73.568,0.8297182999383637,1
21.054038673114327,-16.960460090404585,-52.3992047968999,44.1225436034858,-23.07595471224008,12.29121562733998,14.96782169560447,73.572,0.8337182999383685,1
20.114076967055684,-13.944928665820774,-53.634613847451966,43.28380233379635,-19.8657901007762,10.577604470060958,13.469848843135953,73.576,0.8377182999383592,1
18.963898648000704,-10.43655503473077,-54.73138201448955,42.40928187323018,-16.912534180819037,8.950313600144124,11.756977108664348,73.58,0.8417182999383641,1
18.51240277195497,-9.480767093298018,-54.60822122887214,42.254075146296906,-16.62782527085977,8.743058590373222,11.207277084404845,73.584,0.845718299938369,1
19.078309414623973,-12.082503322002328,-53.35350615738313,43.14592157079502,-19.392083331155714,10.125026778705182,12.478835046417009,73.588,0.8497182999383597,1
20.09172045468023,-16.509540535126153,-51.86661026283283,44.69775416165608,-23.26974999786604,12.00799770762108,14.848428471867637,73.592,0.8537182999383646,1
20.591024825745325,-19.907014926795853,-50.78185900087958,46.05460743323361,-25.651094505249105,13.038737273461914,16.655598900483675,73.596,0.8577182999383695,1
19.98223158693199,-20.407631086990342,-49.934188369288655,46.41704056916824,-25.070680081932682,12.60118979954354,16.4120375825679,73.6,0.8617182999383601,1
18.392211815036422,-17.957700416856216,-48.87218368394993,45.47000769193987,-21.73202380789603,10.977309771413383,13.722378630312512,73.604,0.865718299938365,1
16.43217598966958,-13.737472796023747,-47.66793558760354,43.529865261168894,-16.845419935557395,8.816239037769158,9.472548030577066,73.608,0.8697182999383699,1
14.723738130617068,-9.30882581258153,-46.96126159427179,41.42543909015616,-11.878749164858924,6.670548973003348,5.329110377935663,73.612,0.8737182999383606,1
13.61888494080525,-6.273460712031306,-47.14010691987547,40.17892296314816,-8.32441156233493,5.004565854854361,2.935605435433929,73.616,0.8777182999383655,1
13.210382903872171,-6.085684749196605,-47.658318796083734,40.54394846348977,-7.533490232793395,4.341508362453306,3.1816540482584945,73.62,0.8817182999383704,1
13.4269645156535,-9.369792661282768,-47.41934761542737,42.553730414814495,-10.036238346617296,5.047941148615193,5.796742544244257,73.624,0.885718299938361,1
14.045034800001405,-15.041279933844327,-45.93761497867347,45.376814354436526,-14.73453701690408,6.84207062372908,9.44951215125488,73.628,0.8897182999383659,1
14.688367425289647,-20.411927858428612,-43.99640582862639,47.72097565952458,-19.093166752795096,8.680958437689258,12.411198917346637,73.632,0.8937182999383708,1
14.976685913482608,-22.88109594950008,-42.93935894486353,48.65215476939096,-20.784069555197373,9.441201811403072,13.53448195528435,73.636,0.8977182999383615,1
14.798799567978131,-22.11453707458256,-43.20173126761238,48.27008190433642,-19.645745032443052,8.927266936277384,12.965864966046071,73.64,0.9017182999383664,1
14.46434385105502,-20.65680098852551,-43.62609991451971,47.65744320370096,-18.08173924842141,8.210074627207149,12.032778469503532,73.644,0.9057182999383713,1
14.528588828726573,-22.044778747005417,-42.419424934894934,48.04793947121284,-19.20865879871225,8.811157537056404,12.285176643616808,73.648,0.909718299938362,1
15.38252359429177,-27.831570521161964,-38.92405212696823,49.83892530738837,-24.197401465305063,11.372615592270572,14.358959619484548,73.652,0.9137182999383668,1
16.945997016974815,-36.1589089511822,-34.44340967311987,52.269314427676434,-31.184904470778964,15.034797215270428,17.53711443515935,73.656,0.9177182999383717,1
18.728003148214157,-43.24593015658453,-31.212136315631355,54.047957056601,-36.79820507280734,18.131394617599046,20.348916722609022,73.66,0.9217182999383624,1
20.193645891129055,-46.50346195376279,-30.420220769802594,54.396684142349955,-38.94122699820814,19.578908371107868,21.695671317186658,73.664,0.9257182999383673,1
21.123288814612746,-46.50442759846669,-31.155674182850355,53.61750160857381,-38.36726971203082,19.704002264648896,21.582578805512416,73.668,0.9297182999383722,1
21.69456379333805,-46.1715596960845,-31.253062498362073,52.740739459269584,-37.76857802175533,19.825043252746465,20.932853710847812,73.672,0.9337182999383629,1
22.279115578627128,-48.13089549117413,-29.215477072425326,52.63785971164085,-39.41449202775424,21.0737423399993,20.7701469610864,73.676,0.9377182999383677,1
23.153377924565802,-52.69497303319312,-25.422980053446057,53.40949163481652,-43.51331915625959,23.549816556777987,21.51858612673845,73.68,0.9417182999383726,1
24.318080584726903,-58.049191731731405,-21.631531836574936,54.51441931676159,-48.49798803459415,26.433072786435847,22.913138914976145,73.684,0.9457182999383633,1
25.484495467199547,-62.01823022728389,-19.41761467478504,55.37300016538623,-52.52248459930573,28.72210452800563,24.378729340783234,73.688,0.9497182999383682,1
26.18939264628772,-63.54306693548671,-19.078806967397792,55.79625179380396,-54.57349418807593,29.817970170304786,25.391753480563974,73.692,0.9537182999383589,1
25.995952825156973,-62.749704974712444,-19.831458320315257,55.893592166191944,-54.436229240847624,29.566734430721187,25.561113113805202,73.696,0.9577182999383638,1
24.735100430239253,-60.15084728621185,-20.79545802889423,55.71671808328639,-52.14974859080189,28.041842354377284,24.602393038005044,73.7,0.9617182999383687,1
22.678577857550795,-56.22539000768042,-21.637214710064182,55.140292404309726,-47.95519154710201,25.51704625023173,22.481879752754377,73.704,0.9657182999383593,1
20.491176003971244,-51.770550262475,-22.357742470339407,54.12805795193198,-42.807568966608834,22.64602172124394,19.670606022276058,73.708,0.9697182999383642,1
18.908406617085554,-48.205475514374626,-22.744201696035077,53.014997148777255,-38.525683006624995,20.43269890805232,17.119257543119563,73.712,0.9737182999383691,1
18.305344019000014,-46.93729048471098,-22.303482783517314,52.3621658609257,-36.865560529933354,19.719752471077925,15.71907144715801,73.716,0.9777182999383598,1
18.463797873287827,-48.083169566722106,-20.825447058113912,52.4211821480258,-38.05947677840636,20.50936703032299,15.573746351605758,73.72,0.9817182999383647,1
18.733210742015586,-49.87897621488073,-18.913174371200007,52.755749657275274,-40.24505554574623,21.777574389076744,15.770671343459382,73.724,0.9857182999383696,1
