Fz,FC3,FC5,F3,FC4,FCz,Cz,Time,t_rel,idx
10.873295274293666,-9.739273401289237,-49.47563915673126,48.41856588574178,-18.20968580934086,6.1934329885557835,11.939304218770138,85.752,-1.996421000083913,2
11.684920207442955,-12.396779179579573,-48.05865747994941,48.73960892820896,-19.909495098765387,7.332302533283731,12.608100089358734,85.756,-1.9924210000839082,2
12.008051272388183,-13.457059989250949,-47.21646269787729,48.854474276068586,-21.032257897336503,8.035507878048087,12.807747157959916,85.76,-1.9884210000839033,2
11.798401484872647,-12.515509252005037,-46.96199596265934,48.445914988644034,-20.951540245437194,8.083847536708804,12.1008814498761,85.764,-1.9844210000839126,2
11.652585917516294,-11.597927857227534,-46.41126535352095,47.866605645338495,-20.944606381992088,8.273508836376338,11.161099193509443,85.768,-1.9804210000839078,2
12.258651907456416,-13.409264847634548,-44.696433710149265,47.92447000937353,-23.03699397788113,9.648429012258301,11.311141606576733,85.772,-1.9764210000839029,2
13.690014131750226,-18.666126595770947,-42.01886517558789,49.15461639432072,-27.806844672872764,12.324086199348939,13.323119718811727,85.776,-1.9724210000839122,2
15.202085783726188,-24.986193098620586,-39.79956100298335,51.23894458644812,-33.268361708605546,15.046608572394907,16.56647686764029,85.78,-1.9684210000839073,2
15.757833730029017,-28.494194293547846,-39.67880810511002,53.14498124131316,-36.08563339689353,16.013571453124122,19.3422493710851,85.784,-1.9644210000839024,2
14.855975850958009,-26.885769905142404,-42.18147311160997,53.92608758017982,-34.24907227116814,14.329347557708441,20.20490429907425,85.788,-1.9604210000839117,2
12.964349952160264,-21.37505628524605,-46.190778857550754,53.51535500480429,-28.938567944051318,10.854848256069277,19.169849873814325,85.792,-1.9564210000839068,2
11.202462934722499,-15.8793159726451,-49.67839165769271,52.805079029369686,-23.890074087634314,7.695732153695908,17.74450760018404,85.796,-1.952421000083902,2
10.543728187791707,-14.092527031286219,-51.08747264518441,52.89316283686501,-22.658534320290432,6.708226621882233,17.693416350222147,85.8,-1.9484210000839113,2
11.171446985585158,-16.79390743182501,-50.28417322976928,54.110480379420565,-25.944200030643373,8.200021473634843,19.540331853597124,85.804,-1.9444210000839064,2
12.452176433596556,-21.485586430619566,-48.42004923055826,55.682453769135485,-31.139914381035652,10.82384804614509,22.087071793336374,85.808,-1.9404210000839015,2
13.482068659169817,-24.55996376714955,-46.929005180812155,56.37483552225678,-34.48274442054179,12.701718849879793,23.413090337197143,85.812,-1.9364210000839108,2
13.747769445092993,-24.21117267093811,-46.480223867710436,55.61077216021973,-34.08744246729341,12.869903876595918,22.55039352403333,85.816,-1.932421000083906,2
13.415366934022922,-21.756155435248207,-46.63482636937974,54.06638239626626,-31.39058041268141,11.920317766238654,20.37949512078152,85.82,-1.9284210000839153,2
13.084259525191772,-20.319427394601448,-46.37125492130104,53.136190401277,-29.78360807634064,11.36614101419711,18.887699451577273,85.824,-1.9244210000839104,2
13.247594093696298,-21.980053591612087,-45.01568346653098,53.65475660185002,-31.53255274423953,12.271837017335997,19.354102089500298,85.828,-1.9204210000839055,2
13.89984479133788,-25.804746781355167,-42.84813353548704,55.00916182620186,-35.60935393169741,14.288075847658389,21.0651517833415,85.832,-1.9164210000839148,2
14.596554725676434,-28.548780502933788,-40.90612740895845,55.53775008683742,-38.424754207391466,15.927547032973752,21.81781027379611,85.836,-1.91242100008391,2
14.898528102159782,-27.55727804521908,-40.122345868456286,53.98647599655963,-36.99633514768419,15.888748727624558,19.90220623501559,85.84,-1.908421000083905,2
14.798335284747631,-23.347194722855622,-40.49768126549102,50.756540077883976,-31.812583888125562,14.285823132216253,15.81676138162436,85.844,-1.9044210000839144,2
14.715764224040937,-19.392549354880362,-41.0599878423264,47.73866094664276,-26.67599102749032,12.62567153092793,12.048431523085474,85.848,-1.9004210000839095,2
15.0219202129487,-19.021533286425317,-40.742907754574134,46.75543833951341,-25.38943611815382,12.432692928981208,10.943825677709942,85.852,-1.8964210000839046,2
15.526692196073743,-22.115146454332702,-39.46604473596151,47.957551934051686,-28.154459735575628,13.71349274163352,12.537914054110889,85.856,-1.892421000083914,2
15.491203768503647,-24.82788372467778,-38.382330362687775,49.66743381420714,-31.133707433192466,14.766048078110803,14.419235859736434,85.86,-1.888421000083909,2
14.297745929488771,-22.99209790954785,-38.909542393645744,49.891542023130455,-29.926446411295437,13.713121367891237,13.925677393978587,85.864,-1.8844210000839041,2
12.240553820675988,-16.324420534174802,-41.3176919211998,48.15601155249365,-23.970005049730734,10.474537616797695,10.741014515138032,85.868,-1.8804210000839134,2
10.632896742358039,-9.407732720074875,-44.21929546045349,45.95821634719975,-17.663352122033263,7.2675272356845,7.431739977319352,85.872,-1.8764210000839086,2
10.927445354777841,-8.103302938231645,-45.612963295200466,45.383479108095166,-16.778769646055444,6.912135278160439,7.271976138454105,85.876,-1.8724210000839037,2
13.466180696713037,-14.33425039960322,-44.66860674989759,47.16463440730186,-23.159894255272906,10.280194842828093,11.251741457930745,85.88,-1.868421000083913,2
16.963655087045726,-24.015570037224414,-42.595729618403624,50.00386480066936,-32.60681320111004,15.22441133140139,17.02618163762161,85.884,-1.864421000083908,2
19.321825347621655,-30.27542993863819,-41.65021562900317,51.77870109390741,-38.16058166605055,18.15427776781553,20.831423024347316,85.888,-1.8604210000839032,2
19.22147637137117,-29.2475836541737,-43.074289671850465,51.454980010120785,-36.01434849046284,17.018192607224588,20.64157282777048,85.892,-1.8564210000839125,2
17.16645866375252,-23.197764215220523,-45.884434664425434,49.876496089113914,-28.689181000983925,13.04252741153213,17.68589771623132,85.896,-1.8524210000839076,2
15.046321452303868,-18.121366846631027,-47.739474460599226,48.73202293251111,-22.52924198724059,9.600993502052972,15.010745407602911,85.9,-1.8484210000839028,2
14.55801529971702,-18.099229402302463,-47.16780926102357,48.79677835505519,-21.84810834318278,9.197501126206506,14.5628522255301,85.904,-1.844421000083912,2
15.849338316384214,-21.734228575618776,-45.05872017262809,49.229371472715805,-25.20314773229747,11.315303064330864,15.602083627113467,85.908,-1.8404210000839072,2
17.555704581357915,-23.96560646268865,-43.923827705908934,48.60831389708841,-27.23921544198076,13.101099666953983,15.863531465178063,85.912,-1.8364210000839023,2
18.145236022763825,-21.390135179176138,-45.52551748262635,46.62185603909786,-24.234788125155674,12.207974053703769,14.175374671392706,85.916,-1.8324210000839116,2
17.31544652815499,-15.884947890993455,-49.071296105429404,44.655833289791524,-17.9826943132308,9.105504863378101,11.86215362832907,85.92,-1.8284210000839067,2
16.17865071358342,-13.022868323558585,-51.71337614516642,44.6219545041796,-14.286764840899629,6.690866070771272,11.531538021090332,85.924,-1.8244210000839018,2
16.123251714572437,-16.813963444949223,-50.96189881383048,47.13333876359856,-17.530607589216817,7.592730534807547,14.457148835018012,85.928,-1.8204210000839112,2
17.457781616548818,-25.808994526396706,-46.83049545670908,50.80847251181195,-26.4876291737579,11.712653788892302,19.14821123961063,85.932,-1.8164210000839063,2
19.104221370976184,-34.24231144704946,-41.78318687212907,53.40731049161156,-35.287622185398334,16.27632002236895,22.525268619620167,85.936,-1.8124210000839014,2
19.591624643824698,-37.081607221634684,-38.59061179311328,53.74405164694904,-38.54211568925613,18.28235533513067,22.596303078099716,85.94,-1.8084210000839107,2
18.39011889644271,-34.2435162642111,-38.090213466322254,52.59750009080423,-35.80368470910101,17.0333865242733,20.116408928114137,85.944,-1.8044210000839058,2
16.345224647232104,-30.176290487047428,-38.83016557638373,51.82253677884739,-31.34818253583208,14.459302716549786,17.727574456633967,85.948,-1.8004210000839151,2
14.84539154643277,-29.428874416937102,-38.75389310379948,52.56312054015854,-29.76537865877147,13.078306007755662,17.461328085161092,85.952,-1.7964210000839103,2
14.53168067203597,-32.448729465283705,-37.227006891413275,54.24600356356309,-31.65728559635519,13.608160568978233,18.947177148474896,85.956,-1.7924210000839054,2
14.74655047516718,-35.38936397799316,-35.53151152484959,55.215161931209806,-33.37631526308478,14.436083486985591,19.899394872564958,85.96,-1.7884210000839147,2
14.198735994030926,-33.8490026400994,-35.50175603833641,54.3128543282745,-30.77704569419922,13.314407198804023,18.30180685152562,85.964,-1.7844210000839098,2
12.19795748079368,-26.949423237351358,-37.700911297961774,51.91236102035612,-23.28001227726278,9.58662372947739,14.233404581948747,85.968,-1.780421000083905,2
9.322033581526624,-18.129250859398457,-40.84184328846675,49.52987777035861,-14.500763956946447,4.866465463140777,9.75348128978565,85.972,-1.7764210000839142,2
6.9320838697057985,-12.19530419144508,-42.886524094343656,48.488321383440386,-9.058923176695469,1.6256110992991433,7.0947351100389175,85.976,-1.7724210000839093,2
6.002740753876172,-11.447898474438583,-42.715441594667105,48.88593866092578,-8.64514013229364,1.0686256577819648,6.851175128815443,85.98,-1.7684210000839045,2
6.323160833602551,-14.209525603439738,-40.86580495515842,49.70934479640601,-10.870504960073456,2.2259829700717986,7.687346918591269,85.984,-1.7644210000839138,2
6.754555113320091,-16.716611536864725,-38.821657186602046,49.8467423848009,-11.717679069119242,2.9900998591578545,7.664550435307214,85.988,-1.760421000083909,2
6.278050244980766,-16.453079209424413,-37.655977881166926,49.04445817652256,-9.227660379238573,2.0675228473292333,5.94668620099738,85.992,-1.756421000083904,2
4.896009139345008,-14.086397385463584,-37.26274434829613,48.05563403938228,-5.203276544489201,0.10576654765685424,3.495008551864814,85.996,-1.7524210000839133,2
3.6235159780844453,-12.667528051276529,-36.71634786487628,48.00522162849569,-3.6637171721664643,-0.9032256709106643,2.322081152649838,86.0,-1.7484210000839084,2
3.620593208466574,-15.070914916110237,-35.24952243415993,49.57851564117212,-7.566215727468598,0.6804157563269174,4.007128471773167,86.004,-1.7444210000839036,2
5.231792795993454,-21.81559421114726,-32.918482932497966,52.61285705180619,-16.51852457606744,4.8135686652869945,8.594383206626068,86.008,-1.7404210000839129,2
7.721526614542929,-30.763641317238374,-30.472690710088422,56.23779365803089,-27.0973319793781,9.818856587177159,14.555487146953961,86.012,-1.736421000083908,2
9.861945745431774,-38.609673382296926,-28.701571604329896,59.338559769838845,-35.215903047264476,13.625233397721821,19.70140912089889,86.016,-1.732421000083903,2
10.830574601171813,-42.90375054752439,-27.880975329410184,61.04924748880355,-38.6080425793829,15.133156348874937,22.379790017467194,86.02,-1.7284210000839124,2
10.689496490403672,-43.27371994874783,-27.697581126895123,61.09472286293207,-37.77458819478289,14.714260239901407,22.24740967718872,86.024,-1.7244210000839075,2
10.139568709879004,-41.272322384692245,-27.564133503526268,59.88732569110049,-35.09768118181149,13.654739727343712,20.252502941706833,86.028,-1.7204210000839026,2
9.855553180795429,-39.17786421256697,-27.003697372930766,58.32093805915066,-33.061227741636635,13.131495610590783,17.934802476597525,86.032,-1.716421000083912,2
9.993423607586587,-38.60407980364834,-25.872213597841313,57.30794836129105,-32.85038947556831,13.510093981253156,16.51521692692719,86.036,-1.712421000083907,2
10.23617022547199,-39.76590448431744,-24.377278581432552,57.29124792574861,-34.09042657542195,14.369692290859266,16.336499199092103,86.04,-1.7084210000839022,2
10.258999242691301,-41.786463864637604,-22.933384236413197,58.05825684161289,-35.659597324356696,15.09251889102909,16.96967045007423,86.044,-1.7044210000839115,2
10.166133727287427,-43.74428889618091,-21.90055196513576,59.01218487954218,-36.877614705081186,15.508921216786797,17.83521574278148,86.048,-1.7004210000839066,2
10.513343760990404,-45.62465516047807,-21.313263449197187,59.69534047979995,-38.19632282055429,16.11790089873969,18.807656290699533,86.052,-1.6964210000839017,2
11.888643629767936,-48.3643433576861,-20.79925655958975,60.128105539663714,-40.86405440113929,17.72237279530301,20.288532353680512,86.056,-1.692421000083911,2
14.381532390111879,-52.875559992633086,-19.83552317925898,60.67594329683356,-45.75920552505295,20.728710596795295,22.684102413204315,86.06,-1.6884210000839062,2
17.368731095780262,-58.85149313325662,-18.21683849181271,61.58450896379358,-52.283932931565666,24.631924658181646,25.76709983887951,86.064,-1.6844210000839155,2
19.82333290347915,-64.50199933376392,-16.336738868972354,62.63784358590556,-58.325927761381486,28.146611735396252,28.55687773933681,86.068,-1.6804210000839106,2
20.971676980167004,-67.69400798924883,-14.93902826850996,63.28643120729657,-61.5735309892192,30.014708395943135,29.933750663571256,86.072,-1.6764210000839057,2
20.843103715627368,-67.71592160340956,-14.45141640201424,63.14695058635197,-61.32673958942605,29.966448025296835,29.537575267573686,86.076,-1.672421000083915,2
20.29201092561826,-66.14521833829566,-14.479985751180315,62.4099883723428,-59.324717592909174,29.0687732928552,28.179149091568895,86.08,-1.6684210000839101,2
20.42748522554818,-65.87217113549481,-14.017944088361654,61.7569808829444,-58.699017866920904,29.061520115674988,27.343146866609807,86.084,-1.6644210000839053,2
21.82940614806333,-68.87813473508537,-12.314789439018082,61.830756220489306,-61.65533670435268,31.070577430927354,28.117521078976146,86.088,-1.6604210000839146,2
24.121697740078822,-74.5587683158656,-9.675952713625625,62.71509400590515,-67.66711965748785,34.67326798016541,30.3917809608297,86.092,-1.6564210000839097,2
26.229847744549367,-80.06830175340401,-7.400045480042536,63.87705763837852,-73.71401977320187,38.11089536348615,32.964566260234385,86.096,-1.6524210000839048,2
27.130570326925888,-82.49138217347668,-6.774672447649113,64.61492284904995,-76.4831000192632,39.551823313864965,34.4518381505482,86.1,-1.6484210000839141,2
26.520717476951507,-81.05840184636888,-7.943724469579913,64.61295661682766,-74.80161338229692,38.426462943935725,34.24360266053083,86.104,-1.6444210000839092,2
24.916613760903388,-77.56008738819423,-9.676121364837076,64.12882677623314,-70.35081102190269,35.76952605577002,32.772053182027435,86.108,-1.6404210000839043,2
23.176903793665733,-74.68714181316624,-10.325800097677536,63.684180775706174,-66.16243973715987,33.33130687182735,30.982990206804395,86.112,-1.6364210000839137,2
21.89854183249799,-73.8182189074722,-9.197939649207937,63.56890030734426,-64.25876602633265,32.24776035827662,29.559722084893927,86.116,-1.6324210000839088,2
21.169359355216656,-74.17809171424503,-7.121493574042604,63.61016012557156,-64.41997349498189,32.37754351315363,28.562495789327677,86.12,-1.628421000083904,2
20.774042763300425,-73.9569607638088,-5.701999210430938,63.39066564094779,-64.93912654255352,32.75689009460674,27.67648801793831,86.124,-1.6244210000839132,2
20.5373557424445,-72.1926873165775,-5.910694839882993,62.68694898308764,-64.4392421581552,32.62049389863333,26.697825690450223,86.128,-1.6204210000839083,2
20.44007810146181,-69.62658299863195,-7.274115427186686,61.71378116511602,-63.01724133863368,32.012609656200894,25.751470841673584,86.132,-1.6164210000839034,2
20.46109427290197,-67.82799114387146,-8.387852138339987,60.954499204071354,-61.798093131858195,31.509114854236703,25.08922808285962,86.136,-1.6124210000839128,2
20.414267710960896,-67.5381907000162,-8.274541781406976,60.73525458012959,-61.539887173140194,31.451055053489405,24.75204230998347,86.14,-1.6084210000839079,2
20.023592203850612,-67.83869835529732,-7.343195157433124,60.92149155990135,-61.72615610757728,31.49688773830555,24.466078118250206,86.144,-1.604421000083903,2
19.16647674641476,-66.87158045831616,-7.0791132516070086,60.99737320102227,-60.95916593598724,30.898636728751974,23.847372969721416,86.148,-1.6004210000839123,2
17.986333202043845,-63.37071144104607,-8.745201731482197,60.45858550423072,-58.166277451628225,29.166342948593993,22.67092896928791,86.152,-1.5964210000839074,2
16.70737087275449,-57.613891157940834,-12.247797453229886,59.1994985777564,-53.45168120531248,26.45749899786126,20.949001368111077,86.156,-1.5924210000839025,2
15.340826386769512,-51.08420674547449,-16.141223254096243,57.60213423451399,-47.92554616022779,23.38451220762173,18.823503330893278,86.16,-1.5884210000839118,2
13.645254581399827,-45.348145456505456,-18.721738528264503,56.283252534276954,-42.87738491137116,20.538222141137155,16.480539639327194,86.164,-1.584421000083907,2
11.464331325367452,-41.22408310983326,-19.242560023781394,55.70587652804802,-39.15426748757348,18.24059482239326,14.210107945379423,86.168,-1.580421000083902,2
9.135122760208457,-38.81043650701452,-18.261666049503177,55.92846659873881,-37.1679694407243,16.691912743500403,12.484569894794312,86.172,-1.5764210000839114,2
7.499326534887635,-38.02326737173977,-16.95576919889667,56.63507838733866,-37.19118533135129,16.19750499509974,11.838311984661727,86.176,-1.5724210000839065,2
7.374976694734658,-38.9049929105687,-16.110905014909648,57.38903069060449,-39.366579132113735,17.081749935344455,12.536719736908504,86.18,-1.5684210000839016,2
8.875478138480643,-41.387253436427116,-15.676191499418378,57.92081943686119,-43.329438163840976,19.28997788420476,14.306607640139894,86.184,-1.564421000083911,2
11.17796937940623,-44.862968838144134,-15.170748052812845,58.26125389190654,-47.925493925397,22.095319002382116,16.424668542659077,86.188,-1.560421000083906,2
13.002804079430643,-48.129177951212384,-14.460255222456611,58.64201510817499,-51.51211265073225,24.303868003072466,18.15285863372315,86.192,-1.5564210000839154,2
13.458668892534686,-49.86238809291512,-14.14386764450238,59.23989991025955,-52.756256912642144,24.89717163523758,19.166772212027826,86.196,-1.5524210000839105,2
12.585122352889497,-49.26176786092647,-15.1904564766968,59.951781688522935,-51.314667122880266,23.62342103149985,19.606566387591272,86.2,-1.5484210000839056,2
11.180184464093143,-46.36823174361575,-18.134363745772387,60.37961807659191,-47.85752960738872,21.07094718630284,19.729375369788993,86.204,-1.544421000083915,2
10.101401749474423,-41.89177160431172,-22.508860604527754,60.063020693216636,-43.482571863631584,18.199162898424245,19.51961873135578,86.208,-1.54042100008391,2
9.641588938818424,-36.77918611402769,-26.990323780007078,58.806793433491904,-39.06466657275464,15.738357169070039,18.647436925409075,86.212,-1.5364210000839051,2
9.46306491022851,-31.870646999472175,-30.154850141385076,56.86161183202528,-35.04060794454002,13.916277605615996,16.825150737527515,86.216,-1.5324210000839145,2
9.065050657271732,-27.807042719181005,-31.283684179580977,54.81792915358879,-31.65518323083051,12.631878570403384,14.231051748328621,86.22,-1.5284210000839096,2
8.320536170405166,-25.098483051514044,-30.649319950895237,53.29413029274895,-29.285886794086263,11.81445923726413,11.604564096077322,86.224,-1.5244210000839047,2
7.613193151255373,-24.1589335386271,-29.1474087243378,52.64968249783313,-28.46696675207606,11.605585603546558,9.904847762405936,86.228,-1.520421000083914,2
7.494016799846479,-25.184785035423165,-27.64287107825679,52.89948671213559,-29.564744873761153,12.218245445057129,9.78065203040191,86.232,-1.5164210000839091,2
8.194788397973998,-27.920736318011915,-26.55808221735532,53.81023638239107,-32.37689538304556,13.634280253765802,11.21640888428194,86.236,-1.5124210000839042,2
9.426601732192093,-31.508374029203356,-25.93283195118849,55.02459658093102,-35.99583297755571,15.437938081659969,13.5479025631645,86.24,-1.5084210000839136,2
10.610827808979868,-34.64488290850676,-25.725491259175254,56.11291673302318,-39.095402116686365,16.9630393859732,15.778992356392143,86.244,-1.5044210000839087,2
11.30993169982432,-36.10931614739312,-25.949485462482958,56.60935395120068,-40.52044060292603,17.667799003865266,16.992157557911884,86.248,-1.5004210000839038,2
11.480883328075917,-35.39649138096119,-26.515485966803627,56.14566167996421,-39.839906598889456,17.4527717538769,16.672567184737275,86.252,-1.496421000083913,2
11.370478598072113,-32.98970968049724,-27.06981531505286,54.666560910852105,-37.49610891526834,16.66148282946646,14.85711157242778,86.256,-1.4924210000839082,2
11.209468486999056,-29.982339479158746,-27.18983495671255,52.54263617715135,-34.416033933270434,15.749907416315555,12.086196288675769,86.26,-1.4884210000839033,2
11.025432828645213,-27.28883628870539,-26.87638250872957,50.41231923857378,-31.351447405725263,14.899536233542877,9.179377902398354,86.264,-1.4844210000839126,2
10.74064902070457,-25.11379660476588,-26.80543348679265,48.81708142528319,-28.48034733369528,13.927605639024481,6.914241340241569,86.268,-1.4804210000839078,2
10.411192565336354,-23.18227017882974,-27.86762219551537,47.91808987865601,-25.63005251839775,12.603976060179646,5.746686388570866,86.272,-1.4764210000839029,2
10.308441706444004,-21.511938409829693,-30.218230302532305,47.54183204113537,-22.91760943934448,11.091160190572799,5.706344213554316,86.276,-1.4724210000839122,2
10.705753996323885,-20.894260841401326,-32.72927634864886,47.500307112509006,-21.132977203383927,10.045353502648105,6.5050997819531275,86.28,-1.4684210000839073,2
11.556670112201468,-22.43557025210197,-33.587865423967315,47.859056678170994,-21.336358007685117,10.176576725754831,7.767490167627118,86.284,-1.4644210000839024,2
12.405840649369402,-26.4330614305349,-31.771062586290242,48.871045702394646,-23.88308737620081,11.584293736669697,9.22603130459222,86.288,-1.4604210000839117,2
12.68107331516523,-31.650644438754597,-28.150143918179996,50.63023537992305,-27.758019560403906,13.479412199784203,10.76808702246602,86.292,-1.4564210000839068,2
12.142843676674037,-35.852729560727504,-25.08081940896499,52.79558035363545,-30.978950616197537,14.639006448756785,12.335069106823804,86.296,-1.452421000083902,2
11.083359962191523,-37.32936865914735,-24.606364667789766,54.690956298331564,-31.913885409500296,14.29765578398358,13.777646691930746,86.3,-1.4484210000839113,2
10.072642783480838,-36.1482682740268,-26.732440385479244,55.735041454131135,-30.467003995280866,12.741151135175189,14.798877281999776,86.304,-1.4444210000839064,2
9.463654160288698,-34.004980276289544,-29.32236156325983,55.837224350025764,-28.099603577774083,11.073182482067876,15.052884424941142,86.308,-1.4404210000839015,2
9.094901665713424,-32.75088654095852,-29.808454194160856,55.4156189131652,-26.618235494431037,10.322806457754316,14.344249192917506,86.312,-1.4364210000839108,2
8.44603779452514,-32.847535398014585,-27.304277477787117,55.025305805393735,-26.719264232012154,10.626751842401664,12.772981665493313,86.316,-1.432421000083906,2
7.08825155170918,-33.04264931384077,-23.32093978711035,54.91555418829373,-27.471449411584366,11.147376503580935,10.68385626895165,86.32,-1.4284210000839153,2
5.0243366189144805,-31.475906261572977,-20.505310323746816,54.874333445314896,-27.10357262176361,10.756785159139273,8.42933398371478,86.324,-1.4244210000839104,2
2.651210928880435,-27.22583257496152,-20.520399236298932,54.45981291143099,-24.403610327454746,8.903416880603066,6.135401417800746,86.328,-1.4204210000839055,2
0.4346013432324632,-21.039490476680605,-22.853507448335787,53.405969966289085,-19.62770710208858,5.989270026288301,3.690863691295134,86.332,-1.4164210000839148,2
-1.3932204507933905,-14.760625462742004,-25.442167855210073,51.87501655119402,-14.299298773318776,3.0306855354775935,0.9896104553926276,86.336,-1.41242100008391,2
-2.8910353837034304,-10.017625609068695,-26.44048104367696,50.370975891537235,-10.144920087543913,0.9276737092427128,-1.804587476786917,86.34,-1.408421000083905,2
-4.248508688848451,-7.2042771878782625,-25.59895297188689,49.389527770766215,-7.980352185008033,-0.09914711548671866,-4.258289621657803,86.344,-1.4044210000839144,2
-5.57714335808299,-5.4547444430641585,-24.220454105812482,49.06673405670044,-7.315638623466771,-0.5270890293913966,-5.97166449688261,86.348,-1.4004210000839095,2
-6.775374817794756,-3.5583414995929576,-23.907240849085312,49.08635400758103,-6.922171497318494,-1.0299693606426947,-6.893255983146776,86.352,-1.3964210000839046,2
-7.500643853876577,-1.1080675410654666,-25.2259333439103,48.91939380519694,-5.938101128920074,-1.8383766826384644,-7.308271254786009,86.356,-1.392421000083914,2
-7.278234577947212,1.0190612842497218,-27.344492085662285,48.2206136703608,-4.65218845488738,-2.466862462752094,-7.49789737336154,86.36,-1.388421000083909,2
-5.79038879140647,1.3582854091644938,-28.851147125915567,47.07295873709271,-4.233582597369205,-2.1056943227811584,-7.450431308784768,86.364,-1.3844210000839041,2
-3.2645040445351774,-0.6293598256094408,-29.062672789307467,45.87823461124033,-5.455099681862203,-0.48033754177875115,-6.986260728147283,86.368,-1.3804210000839134,2
-0.6569605272192561,-3.4272827061961437,-28.780699430504495,44.989277136633675,-7.443445362962116,1.5095515172038156,-6.1904406269554695,86.372,-1.3764210000839086,2
0.7019338875798995,-3.9648889335852355,-29.84088012711604,44.4231015997032,-7.7905936889181495,2.088972853240303,-5.61764559090394,86.376,-1.3724210000839037,2
-0.03456789835181282,0.14582773401711918,-33.66968088028248,43.9381224115489,-4.393571814661843,-0.10309330039279166,-5.8830362518770665,86.38,-1.368421000083913,2
-2.4538704179363124,8.200833297752162,-39.87491397775465,43.407676753383946,2.2887035483158975,-4.640947624294295,-6.927481579466707,86.384,-1.364421000083908,2
-4.932641580963082,16.05270534209322,-46.048942243801235,43.09607601934274,8.713487440625054,-9.132890155692857,-7.747794821603806,86.388,-1.3604210000839032,2
-5.688755338204977,18.695482993560834,-49.18642999889195,43.49663874806403,10.467744506328797,-10.71587186550869,-7.068809045348005,86.392,-1.3564210000839125,2
-4.104773805724179,14.078459244317203,-47.83326999059634,44.82864009073271,5.737903350715294,-8.222251018181343,-4.4847078712632955,86.396,-1.3524210000839076,2
-1.1939186209167034,4.933313360164708,-43.29732404808956,46.69310872062914,-2.9862989462931293,-3.18322661846191,-0.9656538470325088,86.4,-1.3484210000839028,2
1.2891847406637431,-3.278895179765969,-38.79354986243713,48.30386379572561,-10.80696660593678,1.3728445994633027,1.9135185122872576,86.404,-1.344421000083912,2
2.3863255819590643,-6.83256266765056,-37.0378646262738,49.152813773883935,-14.536294866101855,3.4436890961805715,3.4238937080026806,86.408,-1.3404210000839072,2
2.753511754242716,-6.7553756389736215,-38.210922700444215,49.47706736819921,-15.374518134985912,3.6943438991687767,4.415893452793078,86.412,-1.3364210000839023,2
3.983810055332253,-7.6009419430118035,-40.0342701927912,50.017217120053715,-17.552075148912465,4.678528323630369,6.507731785699154,86.416,-1.3324210000839116,2
7.03792850830999,-13.008588157173186,-39.918459959499614,51.24299043673116,-24.064921094404514,8.303109000013302,10.40794126602288,86.42,-1.3284210000839067,2
11.249910725791922,-22.15223346584423,-37.289164797590054,52.80286617427661,-33.51474882137504,13.893045072015171,15.010325112725651,86.424,-1.3244210000839018,2
14.850609681343899,-30.41970638970287,-34.02185165668621,53.79166335302596,-41.14216224851498,18.69590761556351,18.245539644970687,86.428,-1.3204210000839112,2
16.498197939812982,-33.62923620829698,-32.66269979992113,53.61978575311049,-43.100756962267795,20.33355595155698,18.94115332600546,86.432,-1.3164210000839063,2
16.333144458872123,-31.658295611249354,-34.16469717858479,52.613452848773704,-39.79182851787395,18.814586614166686,17.853637385895585,86.436,-1.3124210000839014,2
15.56353008542689,-27.98033599947988,-37.24784569822715,51.69201503005466,-34.987345450775635,16.178364986681643,16.781617046319475,86.44,-1.3084210000839107,2
15.07104613052127,-25.75176900394252,-39.83266143230096,51.40395995605778,-31.743052831833356,14.244806940933264,16.607670240564527,86.444,-1.3044210000839058,2
14.51962277498432,-24.617991245721957,-40.9573645158991,51.320129416983775,-29.442682779155703,12.876599359874811,16.301686988933852,86.448,-1.3004210000839151,2
12.920596861109985,-21.66165054138097,-41.22297590562791,50.49287591696345,-25.187421333080973,10.607781831559194,14.050793170457224,86.452,-1.2964210000839103,2
10.066957037309097,-15.541033504651274,-41.4664388256408,48.608417808862626,-18.13659805804755,6.957513668075896,9.511181874092019,86.456,-1.2924210000839054,2
7.268200797060471,-9.314390023042222,-41.29646915137029,46.661147842097364,-12.028545733568562,3.837679052782025,4.872377216041242,86.46,-1.2884210000839147,2
6.452057277275617,-8.511485490455984,-39.28394611196677,46.33271751617489,-12.6499189722769,4.250720992361631,3.409854788887542,86.464,-1.2844210000839098,2
8.37230427935708,-15.84581275795689,-34.76726496991501,48.50346106276149,-22.193802167299978,9.290131159391315,6.640983393662009,86.468,-1.280421000083905,2
11.687376615477145,-27.722436292146178,-29.328665723355776,52.25625541091915,-36.05112347633947,16.44409743992393,12.714496025521207,86.472,-1.2764210000839142,2
13.947643416975293,-36.38983887865461,-26.10308387984296,55.38532320232347,-45.70893477106264,21.195231042480327,17.673659867781133,86.476,-1.2724210000839093,2
13.689553299560188,-36.22511052370507,-27.233043043569527,56.059999038748316,-45.61082368147693,20.730966886234917,18.588458024208112,86.48,-1.2684210000839045,2
11.690133411111661,-28.450267620004894,-31.826946926349,54.20375864384066,-37.75155250161346,16.356751045785405,15.77812394722965,86.484,-1.2644210000839138,2
10.170332151164008,-19.827035813921373,-36.531402765373414,51.39257630408534,-29.644754480734807,12.260300984434002,12.179983620346267,86.488,-1.260421000083909,2
10.688556149357314,-16.524965417634107,-38.37528087594957,49.432687998570415,-27.510958610091947,11.712218012718672,10.57774274302922,86.492,-1.256421000083904,2
12.734363186646222,-18.934806168684215,-37.268064891366095,48.94911174456691,-31.07314437493778,14.269686880406685,11.322853623368296,86.496,-1.2524210000839133,2
14.349817612727353,-22.196669020774156,-35.765983289956104,49.20226491122612,-34.72927155090009,16.591770514994675,12.548070822682192,86.5,-1.2484210000839084,2
14.123645087413697,-21.60559335382518,-36.3353747477371,49.117826479844965,-33.65250452577494,15.967565225277323,12.38443583480124,86.504,-1.2444210000839036,2
12.572034283099722,-17.381193002743913,-38.802671145718584,48.40104932778628,-28.668168158797446,13.041716801237214,10.83723189513674,86.508,-1.2404210000839129,2
11.558057181028147,-14.134895486760277,-40.52217440790173,47.669003008128755,-25.176063786454687,11.078785051510202,9.527288440449594,86.512,-1.236421000083908,2
12.370979921709104,-15.804116068864317,-39.11901137647731,47.61965731903775,-27.428333087973364,12.577282834032099,9.783540458536047,86.516,-1.232421000083903,2
14.41838090320349,-21.351574724569364,-35.09328750226705,48.214347434260944,-34.06250196553585,16.667352117393413,11.20728373751443,86.52,-1.2284210000839124,2
15.846516138589966,-25.633280368145428,-31.65714332553101,48.7329440275569,-39.384716039347815,19.901408049405592,12.194271517471783,86.524,-1.2244210000839075,2
15.444096717456187,-24.511856790344524,-31.863686271376967,48.57025412858639,-39.019055180846635,19.628115950638467,11.752131445887098,86.528,-1.2204210000839026,2
13.881125255667756,-18.97622341619511,-35.746989234817974,47.86082386029883,-34.16253236172362,16.56368232509998,10.580113571670156,86.532,-1.216421000083912,2
13.007677471281774,-14.078375292208353,-40.218308654027844,47.2541452704695,-30.181484751112983,14.004490002457336,10.211855953140576,86.536,-1.212421000083907,2
13.911088752060838,-13.78734634757411,-41.836094354057515,47.11714707699855,-31.04662426330001,14.494988442122017,11.146840693750258,86.54,-1.2084210000839022,2
15.707725726099579,-16.985766160339487,-39.850639850005706,47.06941961469186,-35.26408987607399,17.282706815476978,12.040643730150768,86.544,-1.2044210000839115,2
16.325991056568547,-18.634619562973608,-36.7256441493598,46.38891374466859,-37.36827130550071,19.064350696016046,10.949279520580928,86.548,-1.2004210000839066,2
14.534434532831758,-14.885297668995154,-35.77747763988722,44.86949962154791,-33.40732319789878,17.23371851976678,7.432445832634695,86.552,-1.1964210000839017,2
11.19840842154626,-6.971158758709822,-38.24043942320601,43.19880698084285,-24.900408681630378,12.398146706963743,3.3166447541933555,86.556,-1.192421000083911,2
8.495908613326135,-0.01053697855021172,-42.44051437521762,42.406960038758044,-17.38107047668361,7.730990042008202,1.1982631363590655,86.56,-1.1884210000839062,2
7.846144365034061,2.008851025697523,-45.6269369744951,42.905829587278845,-15.08151159280495,5.890921080471241,2.056702508818379,86.564,-1.1844210000839155,2
8.581324007019541,0.04419721941615875,-46.53978517495294,44.075142531836846,-17.04111783908891,6.574961603131599,4.305277652637722,86.568,-1.1804210000839106,2
8.654576909691235,-1.078518632918905,-46.314738221530746,44.80483246349014,-18.320646306042672,7.021888336497752,5.232605450813203,86.572,-1.1764210000839057,2
6.672874791076305,2.5948731417113167,-47.10739990944842,44.45049735547105,-14.881888955211721,4.817204423334706,3.453839153066775,86.576,-1.172421000083915,2
3.2679369475392304,10.46418456969931,-49.97490010330901,43.28242421393387,-7.254812682539106,0.17706681986644116,0.038100234809289174,86.58,-1.1684210000839101,2
0.5076921552142774,18.181663581731794,-54.033614525559436,42.06392972367743,0.37470507006555837,-4.420709461371896,-2.673666543757707,86.584,-1.1644210000839053,2
-0.024189382427017493,21.843928447062286,-57.4692808438731,41.26884604148811,4.367604204254987,-6.690371299266776,-3.2965371672384403,86.588,-1.1604210000839146,2
1.387620975905705,21.337238979077707,-59.20129713938561,40.737585475915424,4.813030438339198,-6.566607612441009,-2.507571117411383,86.592,-1.1564210000839097,2
2.9948107653691958,19.826124535190292,-59.5998285218879,40.03230957123855,4.802747184917664,-5.941851106486073,-2.1143124283416967,86.596,-1.1524210000839048,2
3.2572344854414297,20.36930011923023,-59.79615336491,39.01132178656546,6.9909334370798195,-6.628353317121757,-3.2042831462851615,86.6,-1.1484210000839141,2
2.1180168753665503,23.234481816118702,-60.49530474571323,37.986553449336675,11.100259037001056,-8.6963504501507,-5.247655981959016,86.604,-1.1444210000839092,2
0.763822428821856,26.2830418452801,-61.46558803658127,37.36099597279236,14.630131347410595,-10.705688746075708,-6.8667148116479195,86.608,-1.1404210000839043,2
0.31230672987773855,27.45005623502772,-61.99102656821704,37.22640698207986,15.56890338753105,-11.312506439481758,-7.254140326817536,86.612,-1.1364210000839137,2
0.8282958203412943,26.476489331270418,-61.607958985536925,37.39053703360444,14.105819272429374,-10.469250451284209,-6.7239320208243765,86.616,-1.1324210000839088,2
1.549625654093001,24.359188444933963,-60.36384104971571,37.752595691524434,11.815490934398946,-9.116390075679506,-5.9966695995551,86.62,-1.128421000083904,2
1.879445939177829,21.685703499186214,-58.5321378086911,38.515442022241416,9.641491466349205,-7.965813255375433,-5.224131862888116,86.624,-1.1244210000839132,2
1.9941142726059413,18.05705950210051,-56.309932067547,39.916669894673426,7.094833989678527,-6.829673521687257,-3.9230720698241104,86.628,-1.1204210000839083,2
2.4789694249442866,13.219930880751292,-53.8975088468504,41.7564783300863,3.4338486157884036,-5.159179854388447,-1.8325385503314107,86.632,-1.1164210000839034,2
3.5197867527179456,8.340657180945195,-51.77673127639256,43.30492124198424,-0.7558756243974498,-3.0350360413976225,0.4022777665402857,86.636,-1.1124210000839128,2
4.614503640202907,5.616546352969936,-50.7056257396134,43.805515769967975,-3.5717619154765314,-1.3878082035401045,1.6286300954892508,86.64,-1.1084210000839079,2
5.118674952184755,6.364574211608928,-51.26871950551677,43.13136664722841,-3.5118307398884148,-1.154919206926474,1.320853641309578,86.644,-1.104421000083903,2
4.985408018416923,9.58795021697133,-53.364661991992044,41.923999679274694,-1.047660396866764,-2.2948285222529408,0.2097929964488206,86.648,-1.1004210000839123,2
4.865030760718581,12.64945741545337,-56.14286165658504,41.03513194486397,1.6693131538249197,-3.7305532653536915,-0.34551835292208605,86.652,-1.0964210000839074,2
5.462944723963843,13.462532790553768,-58.48045002447902,40.80234672224488,2.666725579371849,-4.272175672040987,0.35807588038570015,86.656,-1.0924210000839025,2
6.863909125957418,12.005701672367811,-59.59278800571276,40.86724174721246,1.6395794658563134,-3.545414617877656,1.7617706121964285,86.66,-1.0884210000839118,2
8.52581600306266,9.742155408602992,-59.31480409452107,40.68692722580568,-0.3422488549463549,-2.037561658224213,2.739715970220359,86.664,-1.084421000083907,2
9.875968409010376,7.798492550642091,-57.973443957142564,40.17570869518307,-2.308310907476067,-0.39283927524957596,2.824424485032671,86.668,-1.080421000083902,2
10.801754544186801,5.994753348097107,-56.1255106024617,39.796128423486806,-4.246548808399713,1.145049677347178,2.634373417743532,86.672,-1.0764210000839114,2
11.522971564463882,3.6813275470589613,-54.398287680032546,40.022208047312404,-6.466842218818169,2.568814576626611,3.069808163388877,86.676,-1.0724210000839065,2
12.098353908547605,1.1659715547753529,-53.38388591060408,40.78086672948541,-8.487988160988335,3.6108730800336546,4.2158087987503965,86.68,-1.0684210000839016,2
12.245087599379417,-0.19236188844474902,-53.425285471194535,41.50839488331046,-9.095803962652726,3.7302394095395015,5.229729430062631,86.684,-1.064421000083911,2
11.741182417658528,0.44677441412001295,-54.35133323582296,41.795716055000675,-7.797960504094238,2.768137486465021,5.397483366672977,86.688,-1.060421000083906,2
10.925649482677615,1.9269143651613434,-55.45920862310767,41.93962210964041,-6.052093596827839,1.5192751317907645,5.199841130665411,86.692,-1.0564210000839154,2
10.619403364048534,1.5991831107408596,-55.91803420516131,42.77491645239674,-6.586929315041015,1.3830073747699554,6.128453218246263,86.696,-1.0524210000839105,2
11.427616108889888,-2.40204748451472,-55.32889774245173,44.895616554711395,-11.123424481664335,3.232047535224857,9.299089509804658,86.7,-1.0484210000839056,2
13.139207470797189,-9.384062135956363,-53.922372123277555,48.02427328858858,-18.705108329092475,6.60273369457981,14.245328134360834,86.704,-1.044421000083915,2
14.914627685244138,-16.737385694834465,-52.179473878744965,51.16768043587388,-26.45056739162873,10.110598795366558,19.174520048723604,86.708,-1.04042100008391,2
16.114090491029913,-22.38122586390525,-50.27722397894348,53.414019215098314,-32.083683895025096,12.732030389439394,22.48199364230622,86.712,-1.0364210000839051,2
16.8829167733374,-26.42045325793377,-48.005430284710016,54.58692618666684,-35.67020427310181,14.618667073861712,24.00757778187966,86.716,-1.0324210000839145,2
17.837886851046683,-30.24847913028946,-45.31542088508172,55.142175913271146,-38.77326885267954,16.56374397792804,24.793362125804858,86.72,-1.0284210000839096,2
19.19008373763515,-34.17589042364922,-42.89115507696904,55.4939543024644,-42.02645323495887,18.71749751235619,25.69196318312141,86.724,-1.0244210000839047,2
20.305296563507934,-36.413254310012064,-41.945459479292886,55.54359589493323,-43.92091688159168,20.048912767742884,26.38182544471259,86.728,-1.020421000083914,2
20.260282902519933,-34.824767992183354,-43.18182677862286,54.92772571084162,-42.34202642430264,19.30114479764365,25.85946778410368,86.732,-1.0164210000839091,2
18.84164346629333,-29.688271614459392,-45.8546421817279,53.67451544903085,-37.294109949650604,16.506467615778508,23.81439721473523,86.736,-1.0124210000839042,2
16.88266318885697,-24.25659730961655,-48.016484014204096,52.457148620594246,-31.68908461618789,13.35053221408014,21.271821916477187,86.74,-1.0084210000839136,2
15.505516707387752,-22.037076763717952,-48.01131705188441,52.0409117608859,-28.944476106534086,11.775715643398428,19.670725810464386,86.744,-1.0044210000839087,2
15.043110003024067,-23.334978569384408,-45.962794329630974,52.439791265512,-29.636864170879182,12.12956865980864,19.322167141549862,86.748,-1.0004210000839038,2
14.820732630389788,-24.795505454363795,-43.781575221035794,52.733549547590506,-30.808444390285423,12.825937564547194,19.00530532315754,86.752,-0.9964210000839131,2
14.073668604891331,-22.829716531826506,-43.48889993238783,51.8986799663594,-29.004717367771143,12.033607369441853,17.3173778912929,86.756,-0.9924210000839082,2
13.001410193931697,-17.64706104127513,-45.31469409432697,49.91754047100213,-24.132459337927536,9.74195481504652,14.433308993549314,86.76,-0.9884210000839033,2
12.725658285458447,-13.56531824009638,-47.41711334589121,47.99167477933869,-19.99727325143908,7.978341485594341,12.284030287035215,86.764,-0.9844210000839126,2
14.0621177570016,-14.779704050344765,-47.643744875831096,47.463549963070776,-20.512437176383777,8.732499353215362,12.67771902927191,86.768,-0.9804210000839078,2
16.358693896852323,-20.528701932212087,-45.765374147211,48.36965949727514,-25.114572715002442,11.568454622987943,15.111840777310137,86.772,-0.9764210000839029,2
17.72614746089119,-24.687937149053212,-44.00137102362144,49.08195694214543,-28.186381938105452,13.451756361961117,16.615829345782362,86.776,-0.9724210000839122,2
16.623191575374108,-20.81539279101412,-45.144245838785565,47.59438562980066,-23.671871598207794,11.273688322589933,14.140244700242791,86.78,-0.9684210000839073,2
13.329012077370976,-8.28782061638382,-49.87111167074146,43.43489208228347,-10.918886557845969,4.851856464529578,7.462058220787229,86.784,-0.9644210000839024,2
9.842276388915726,6.266920657146198,-55.73344078720135,38.44112999269549,3.799016482015159,-2.4673766394683003,-0.1485260941028994,86.788,-0.9604210000839117,2
8.231195378767401,13.925123538223694,-58.9019740888285,35.53171285831716,11.886634140418415,-6.345478416344643,-4.3272134105534885,86.792,-0.9564210000839068,2
8.945723410356965,10.643980931693772,-57.26017794832057,36.39186425232772,9.335578884255636,-4.957350030829049,-3.099619499484442,86.796,-0.952421000083902,2
10.61305989251847,0.43169849666637317,-52.180624516523615,40.03457864007853,-0.0698266138408451,-0.3908848856300325,1.5619989867311346,86.8,-0.9484210000839113,2
11.400283961795267,-8.111281665038616,-47.45190794078136,43.50368564555797,-7.964021819463202,3.2085980210248146,5.41464379690514,86.804,-0.9444210000839064,2
10.60010137660106,-8.696726889066982,-46.29801380294186,44.155193966875544,-8.114553861897617,3.0167692884343253,5.3372299219955295,86.808,-0.9404210000839015,2
9.036528342159452,-1.8330739688509614,-49.00193469622666,41.626261912651785,-0.9284700163513283,-0.46877363945411704,1.5694620660718412,86.812,-0.9364210000839108,2
8.119566170311172,6.418925370238816,-52.981073334723646,37.929708355760084,7.646515847793505,-4.259397791911157,-2.874244617468749,86.816,-0.9324210000839059,2
8.590836678487133,9.690008819717551,-55.00413527712511,35.736166617415016,11.284774126180542,-5.483468258738295,-4.8141827059368225,86.82,-0.9284210000839153,2
10.069841567080015,5.910952656380574,-53.57097164401339,36.35489045018024,7.936514821479839,-3.456892744952328,-3.2443351061549355,86.824,-0.9244210000839104,2
11.570591537898908,-2.0233489501560227,-49.63860195427975,38.99686236213882,0.5513274392134669,0.23880760323411648,0.30436196195046317,86.828,-0.9204210000839055,2
12.289209137414431,-9.167413922878326,-45.465413787383326,41.69211585014046,-5.880489295589817,3.2746275241159197,3.257364494180647,86.832,-0.9164210000839148,2
11.960838717663696,-12.10482495337805,-42.81862896930928,42.89791297154332,-8.017335725987264,4.199847148198199,3.882190811269378,86.836,-0.9124210000839099,2
10.719810970371814,-10.596183447003146,-41.985667405663264,42.47352281918685,-5.831583341654903,3.0415341608427053,2.1785662439199567,86.84,-0.908421000083905,2
8.859130336283918,-6.800623407203606,-42.08014180233151,41.431056593480704,-1.6840522965273987,0.8284389400930343,-0.5538083637951393,86.844,-0.9044210000839144,2
6.755632044639116,-3.3119774757013585,-42.06204825130133,40.912884456295856,1.8220373941488,-1.2878827036531182,-2.8286454644279515,86.848,-0.9004210000839095,2
4.849154871913286,-1.5394556314289392,-41.54194321959339,41.32365882290482,3.473065703946313,-2.669412463322892,-3.8950680844191896,86.852,-0.8964210000839046,2
3.4885858300401704,-1.2577889576002266,-40.847522186620004,42.22330007408984,3.69651148003369,-3.33419287537769,-3.9688933645657873,86.856,-0.8924210000839139,2
2.735418359165972,-1.332192837972999,-40.47472964984165,42.8964845476701,3.6233051137200802,-3.660574020552851,-3.787711512188641,86.86,-0.888421000083909,2
2.395221649064349,-1.0338431444493905,-40.444878728486174,43.041946877972116,3.783291331121751,-3.872881347513363,-3.868856637709271,86.864,-0.8844210000839041,2
2.3170407902823134,-0.9926941020276397,-40.09900604584752,43.04166950388275,3.3978904669394625,-3.668943751736189,-3.995956861493153,86.868,-0.8804210000839134,2
2.6258115529635067,-2.911812338559546,-38.552272858553856,43.647591160563046,0.8911995126438517,-2.364375017156521,-3.3361420119004603,86.872,-0.8764210000839086,2
3.5523777735169957,-8.004108219944053,-35.546377672421336,45.35259674611573,-4.60466590509741,0.41279925212885477,-1.1626219742987751,86.876,-0.8724210000839037,2
4.988479445179788,-15.348929138308169,-32.03011978655963,47.92919099205075,-11.92814076817474,4.021977171167878,2.3675420846441506,86.88,-0.868421000083913,2
6.299702817739217,-21.843255014654993,-29.827656754859518,50.50517211266664,-18.11494849191523,6.884375502041061,6.096609828982834,86.884,-0.8644210000839081,2
6.739228218357945,-24.289307327093148,-30.39096967426061,52.161014783242784,-20.416988004710866,7.5526125939599735,8.644409410503945,86.888,-0.8604210000839032,2
6.1424813723573966,-22.11172103845188,-33.50292120817936,52.61861551508378,-18.63335401099679,5.990901571914202,9.495997798272667,86.892,-0.8564210000839125,2
5.170420716990069,-18.19155327505436,-37.10525090390767,52.4642605491963,-15.587543757218628,3.831637439683929,9.418029230310378,86.896,-0.8524210000839076,2
4.736490005478087,-16.659916340550954,-38.67505282180383,52.6701095675846,-14.93315210163737,3.125867083902628,9.735654607026852,86.9,-0.8484210000839028,2
5.092033342431348,-19.270616266764268,-37.223073406887615,53.7505777957136,-17.91267499541682,4.52018428611977,11.043569244803995,86.904,-0.8444210000839121,2
5.480106294045902,-23.568514338900258,-34.23736090612828,55.24386286976363,-21.95035652003387,6.51237035846715,12.51989224278576,86.908,-0.8404210000839072,2
4.782309783533867,-24.733463886281843,-32.600411621640646,55.99476738455729,-22.59412013380287,6.619475102665925,12.531443370968303,86.912,-0.8364210000839023,2
2.6121770518230245,-19.71676715587034,-34.223620997769366,55.060222426995864,-17.353104212277536,3.5653980779329077,10.055694809165459,86.916,-0.8324210000839116,2
-0.1758573057837075,-10.098100351986142,-38.367781839498086,52.513565925033184,-8.121868011842782,-1.4306657528476843,5.680707336925254,86.92,-0.8284210000839067,2
-2.079657512677805,-1.107462953316203,-42.148351909500036,49.48130974870773,0.018486341051029632,-5.469607736061427,1.3052840217967447,86.924,-0.8244210000839018,2
-2.1353082706254085,2.379841593195526,-42.863740711289154,47.37698474300504,2.6722639841443674,-6.237294884187172,-1.1927464542431612,86.928,-0.8204210000839112,2
-0.6384084608937423,-0.5630253189550426,-40.17070155508666,46.953011769590475,-0.6251135273216359,-3.767333941217987,-1.188428966115398,86.932,-0.8164210000839063,2
1.213430211484129,-6.695055319529604,-36.2453889112922,47.90585628970708,-6.482587264539009,-0.2115412874294555,0.5152862815990881,86.936,-0.8124210000839014,2
2.3874770375173857,-11.685340711876377,-33.83744193863314,49.27074079156477,-10.78601944361063,2.0955328705773795,2.555051394460634,86.94,-0.8084210000839107,2
2.830602304498868,-13.6413351301912,-33.95753817428423,50.19957330544327,-12.038924050230248,2.5375718270785064,4.070049917685058,86.944,-0.8044210000839058,2
3.3723746047718928,-14.147628240855166,-35.1957701859341,50.48390618034161,-12.119912543656923,2.4887112913792944,5.118318893953432,86.948,-0.8004210000839151,2
4.900052357332546,-16.297075252164646,-35.1611758456645,50.50232540017595,-14.129267234345834,3.8810387297607987,6.304101844905727,86.952,-0.7964210000839103,2
7.575826419511604,-21.7760385350404,-32.66260079751504,50.7847867883645,-19.50646182520155,7.449808174498377,8.134679775382528,86.956,-0.7924210000839054,2
10.726591596460105,-29.56770260945457,-28.68872985158096,51.62751034123361,-26.95583083187214,12.17261309962585,10.685548255588113,86.96,-0.7884210000839147,2
13.394609449785081,-37.09635859731132,-25.419938035612436,53.01402989474806,-33.83230052097378,16.236897899485836,13.703059909878585,86.964,-0.7844210000839098,2
15.011125073321011,-42.446734248060636,-24.280606082710474,54.75563187041131,-38.41856832570169,18.530001498669705,16.84915021407079,86.968,-0.7804210000839049,2
15.659327280624678,-45.601245431610465,-24.811200578824995,56.61206677030435,-40.97385088616036,19.327189446287,19.7877133993798,86.972,-0.7764210000839142,2
15.827175521427797,-47.83623547476667,-25.282055311809028,58.29312888605767,-42.85648506781855,19.724329530491573,22.13014191641722,86.976,-0.7724210000839093,2
15.978081919882545,-50.20152141392143,-24.34851185840279,59.461580132285334,-44.90943610908686,20.529940222134776,23.48986710710843,86.98,-0.7684210000839045,2
16.336026269559646,-52.70669680870743,-22.162459253387983,59.8856497030217,-46.846730805641,21.720887833828968,23.7733230613261,86.984,-0.7644210000839138,2
16.994023556429926,-54.91599828760075,-19.973753599124443,59.68430746668791,-48.164246665963134,22.88603809173654,23.489629437833973,86.988,-0.7604210000839089,2
18.110631979160416,-57.09417544895493,-18.739821733707153,59.401892986006956,-49.39416888411128,24.03917997619882,23.67646112540718,86.992,-0.756421000083904,2
19.878036759710557,-60.39947824789181,-18.193122902534782,59.70497757691628,-52.06068274441149,25.80022984585465,25.270039712356567,86.996,-0.7524210000839133,2
22.20329411939226,-65.57519646384385,-17.315474633904792,60.82694910650873,-57.00921667690585,28.610117242121856,28.259527306631643,87.0,-0.7484210000839084,2
24.409073946825796,-71.29726896734577,-15.722289066957304,62.2065986529635,-62.64920799590052,31.733151067073727,31.319942363340566,87.004,-0.7444210000839036,2
25.37169559242536,-74.09787558263123,-14.478555107161707,62.7318146369275,-65.17144144371044,33.22060648584094,32.42375541830957,87.008,-0.7404210000839129,2
24.19797129324946,-70.62696847113759,-15.354168466824307,61.54690296397087,-61.21618772023048,31.234849890918852,30.2176005100532,87.012,-0.736421000083908,2
21.01274382593051,-60.75081839522449,-19.0751217372678,58.84945578249758,-51.04464841774125,25.78112023159603,25.227268710209415,87.016,-0.7324210000839031,2
17.168534932870752,-48.71134343865679,-24.247011560621225,55.97841139493457,-39.3064290420598,19.25042314934365,19.867414564188845,87.02,-0.7284210000839124,2
14.530568907725895,-40.77663680064367,-28.148046325351345,54.579728319499395,-32.201273662987596,15.005542618379922,17.010116943377426,87.024,-0.7244210000839075,2
14.246951011714508,-40.79115190737295,-28.85644457417142,55.400551478101264,-32.96709084014989,14.953920228405275,18.01326460347323,87.028,-0.7204210000839026,2
15.944265993799203,-47.19128547072137,-26.82396225254811,57.66204823783958,-39.3909376766392,18.106222948648277,21.693648219621625,87.032,-0.716421000083912,2
18.046299618366827,-54.188350884877835,-24.40948586629173,59.58438096410018,-45.60353885404793,21.426645291344386,25.144049731406113,87.036,-0.7124210000839071,2
19.00796799113798,-56.36454219835612,-23.761498106143783,59.7218711155685,-46.800495261541336,22.32163171915571,25.875064740179067,87.04,-0.7084210000839022,2
18.45384684278935,-52.86325209215092,-25.014427538575234,58.06467679575542,-42.916242269838335,20.633353699717347,23.6420445623024,87.044,-0.7044210000839115,2
17.270060017148623,-47.592025754406414,-26.47218659134102,56.01006045077422,-38.140186370951184,18.42404591741443,20.500232331361353,87.048,-0.7004210000839066,2
16.625568040799692,-45.37824028982724,-26.519357187597752,55.226462252433855,-36.85979805170128,17.846084179913277,19.059281055979483,87.052,-0.6964210000839017,2
16.86748656631671,-47.66323743738065,-25.307603661034438,56.35518687560274,-39.798728723134666,19.1415045049727,20.40539187465762,87.056,-0.692421000083911,2
17.329173994871695,-51.65891945981498,-24.512462795132073,58.61078949953762,-43.822109886896286,20.6383583457102,23.415170301723848,87.06,-0.6884210000839062,2
17.19549029370539,-53.54845929494744,-25.428661667732605,60.544967948058854,-45.3691437606259,20.657981850297382,25.947824631244348,87.064,-0.6844210000839155,2
16.529169492107986,-52.457896713284356,-27.395364185661634,61.24056676713253,-44.06676415595282,19.390085297779954,26.760203497878347,87.068,-0.6804210000839106,2
16.387464682712423,-51.269527541491726,-28.248175857142666,60.89150538495283,-43.011513629649336,18.836103713521783,26.414143247096725,87.072,-0.6764210000839057,2
17.84051236739568,-53.518503801298124,-26.438675429340826,60.35207121908109,-45.50647473248144,20.830059014343554,26.441011362300106,87.076,-0.672421000083915,2
20.800439714214704,-59.49717579858567,-22.71466470444946,60.192638265503525,-51.49158748191717,25.057156689084767,27.65319331614933,87.08,-0.6684210000839101,2
23.811122291609642,-65.47466396540537,-19.615403494511035,60.18930372326,-57.177921548443784,29.031262818766606,29.23630017472397,87.084,-0.6644210000839053,2
25.078134748347956,-66.87144165610363,-19.18601386662225,59.676270045410845,-58.27450838502144,30.121471163120972,29.45608795086755,87.088,-0.6604210000839146,2
23.858555382915657,-62.3544316307375,-21.10590299033555,58.32664944335246,-53.74942479708714,27.75955888581368,27.26499570607841,87.092,-0.6564210000839097,2
20.986785860888045,-54.945336868167324,-23.04827164832889,56.54440687065371,-46.615987347889124,23.80547537977106,23.272927753072516,87.096,-0.6524210000839048,2
18.10657739455656,-49.16996889944544,-22.909713398188916,55.08908757266043,-41.12996805769429,20.810726902676297,19.20325848543536,87.1,-0.6484210000839141,2
16.3472286040741,-47.07819123093526,-20.743786990506262,54.34469774234998,-39.14828729855978,19.864215509091757,16.41412366448547,87.104,-0.6444210000839092,2
15.625797137471292,-46.914637577912075,-18.57802351194334,53.98967261600945,-39.01468883188879,19.98108580569408,14.91079436256939,87.108,-0.6404210000839043,2
15.099171805225595,-45.49561682184093,-18.397150323505976,53.39918625906525,-37.7580800474088,19.42658561657388,13.725903511890966,87.112,-0.6364210000839137,2
14.202643316970406,-41.73601706353248,-20.314016710221892,52.361758359941675,-34.244739021861335,17.546783039071368,12.183588079632264,87.116,-0.6324210000839088,2
13.234360254282217,-37.81526465867759,-22.639769206502343,51.376804319446954,-30.236801018518616,15.344346390370903,10.736323919598476,87.12,-0.6284210000839039,2
12.9803659764214,-36.974787135014665,-23.61763798811712,51.226007097484825,-28.55953379939915,14.394241858315793,10.551343990308949,87.124,-0.6244210000839132,2
13.843583684838725,-40.29417194507344,-23.004262559377185,52.24201087387582,-30.40506378169152,15.31361922200336,12.304284505424263,87.128,-0.6204210000839083,2
15.389174923149847,-45.684264814133066,-21.993503621024892,53.999516642584645,-34.4477195499904,17.309800552552815,15.426995866861056,87.132,-0.6164210000839034,2
16.751696509566372,-50.011545114525994,-21.738208757445832,55.73089607650637,-38.45791897970048,19.140764690266323,18.584315575333235,87.136,-0.6124210000839128,2
17.471982713925428,-52.14923969410361,-22.088920943425336,57.048319580009434,-41.599581256876576,20.407790247317887,20.909649353152798,87.14,-0.6084210000839079,2
17.915310193247617,-53.91389289642889,-21.814881334574334,58.25331630399706,-45.05041725705817,21.85324210318256,22.75732288763417,87.144,-0.604421000083903,2
18.850207820849906,-58.00241352093547,-19.986897960430056,59.92552691767533,-50.3929912139852,24.409998440410327,25.196569516415178,87.148,-0.6004210000839123,2
20.593351806779133,-64.9763133144984,-17.058109331442,62.1943553678495,-57.470543791758125,28.001276301394626,28.715982961675277,87.152,-0.5964210000839074,2
22.5438732642475,-72.20079500074142,-14.578527808832497,64.41199114706576,-63.87428069728857,31.292583631530377,32.405155464018854,87.156,-0.5924210000839025,2
23.55816071335047,-75.72674750048986,-13.896625325941239,65.56539372912654,-66.58422850038312,32.63169760505159,34.452349279285635,87.16,-0.5884210000839118,2
22.834604067258955,-73.36762359850428,-15.14415797866595,65.06767629652703,-64.24054811708142,31.290552723119923,33.55949660734576,87.164,-0.584421000083907,2
20.530305861476005,-66.26256935407874,-17.38571400902288,63.224996916602585,-58.04292444442544,27.918359448523475,30.017545580924974,87.168,-0.5804210000839021,2
17.608641082057574,-57.765993190174754,-19.59496920968819,60.98977742709114,-50.671929687420395,23.92822520625107,25.50624837188356,87.172,-0.5764210000839114,2
15.115449534060376,-50.914531162889816,-21.391365501796404,59.2558493446786,-44.40589855195835,20.498271193182934,21.84222514472267,87.176,-0.5724210000839065,2
13.538704115616577,-46.72887127705251,-22.897596420951707,58.31331225994917,-40.080329049159346,18.066361183137314,19.7884191884605,87.18,-0.5684210000839016,2
12.737913897076314,-44.49345167041647,-24.08630929816245,57.86251885850763,-37.454808739946095,16.565566462658126,18.868570490282977,87.184,-0.5644210000839109,2
12.360388852007016,-43.237337764469,-24.473105368717096,57.45508599651417,-36.1766460437688,15.91706783370304,18.15454649473069,87.188,-0.560421000083906,2
12.257986311380582,-42.781563532802835,-23.531485883170802,56.905331350287874,-36.21973220733812,16.188012066754155,17.18145189488915,87.192,-0.5564210000839154,2
12.525716809753467,-43.52345468047252,-21.352243234843097,56.35165551442776,-37.54063767941064,17.335478284822944,16.203484985722117,87.196,-0.5524210000839105,2
13.227839099469163,-45.54639370089524,-18.777923122486335,56.02995574684213,-39.644386811344305,18.966981170222834,15.743927618191778,87.2,-0.5484210000839056,2
14.185221271416548,-48.209128665803846,-16.789832277174785,56.047588832657766,-41.76627000492831,20.50856138649087,16.023859457341768,87.204,-0.5444210000839149,2
15.0837333069546,-50.66742597882571,-15.703713527553768,56.34638086486827,-43.54981450174006,21.67350715472265,16.817332681574015,87.208,-0.54042100008391,2
15.786103361062558,-52.70069085436976,-14.940963193877618,56.802039799124515,-45.43620824724141,22.740457072628026,17.749262062673694,87.212,-0.5364210000839051,2
16.495382003774605,-54.89871887804003,-13.60726476137629,57.30525640749931,-48.230120628553024,24.297841773290546,18.637624083404905,87.216,-0.5324210000839145,2
17.560972812460705,-57.95326318702158,-11.382344799314712,57.768917612708584,-52.18160218128991,26.63421550085035,19.55310424160655,87.22,-0.5284210000839096,2
19.082913917768096,-61.72128458743318,-8.97196603367923,58.12785089198292,-56.46663408549137,29.316485638292022,20.63263425856075,87.224,-0.5244210000839047,2
20.69048086101284,-64.9705731126719,-7.752730434248886,58.37870214717946,-59.59653105730954,31.352565924593222,21.898085671444797,87.228,-0.520421000083914,2
21.734871239011557,-66.11317159353771,-8.857842207223593,58.59976625770969,-60.430333273996034,31.840508279176976,23.2262012988591,87.232,-0.5164210000839091,2
21.772572959073962,-64.38805611074808,-12.32316928053485,58.87269962979023,-58.96420694457339,30.619023836215153,24.411135910776977,87.236,-0.5124210000839042,2
20.953834792846042,-60.589122382410686,-16.859173418372293,59.153311418868014,-56.335217473257735,28.45178996766671,25.224577094659946,87.24,-0.5084210000839136,2
19.990789877907527,-56.76330254743622,-20.454398085466487,59.24833331710325,-54.13072097364781,26.619695337352887,25.48960307418687,87.244,-0.5044210000839087,2
19.702452089284037,-55.01148980680762,-21.542152394863873,58.97607353103632,-53.5108488334716,26.172077321488565,25.213888093334184,87.248,-0.5004210000839038,2
20.458571495301165,-56.13827720505617,-20.054782812424683,58.376013431356164,-54.62154551051971,27.28527371221571,24.694746889127522,87.252,-0.4964210000839131,2
21.92993293193082,-59.076829605066294,-17.591666714728,57.73711453959154,-56.55797674358029,29.140520959503696,24.418904632348518,87.256,-0.4924210000839082,2
23.341861413181554,-61.621455799326284,-16.371221808991656,57.38602755961846,-57.95550380532804,30.477037992040774,24.74325444880519,87.26,-0.4884210000839033,2
24.064271664618122,-62.13486099639203,-17.529150678781022,57.4471491118607,-58.02973455722799,30.55180454077158,25.630520915150623,87.264,-0.48442100008391265,2
24.103041859826604,-61.02761758648792,-20.04581825175626,57.83323370198454,-57.45453793307147,29.844455873318743,26.747242336185757,87.268,-0.48042100008390776,2
24.08956961405034,-60.66922373195559,-21.367792983862326,58.45550569787321,-58.21086744875622,29.840432638354326,27.86237621429625,87.272,-0.47642100008390287,2
24.721341672532777,-63.41639398695067,-19.511462071577565,59.35139655133747,-62.04905016184495,31.824375886962684,29.079792109540264,87.276,-0.4724210000839122,2
26.063097815419034,-69.10548721427769,-15.030504601188817,60.49258942133073,-68.46205287692082,35.511199244595886,30.53115821104167,87.28,-0.4684210000839073,2
27.311630433165984,-74.24722490328737,-11.036141531104478,61.4498012806574,-74.01268078312734,38.7524677860365,31.782147717659303,87.284,-0.4644210000839024,2
27.327588996961364,-74.15027621996225,-10.938960231268874,61.39523042093215,-74.2379515395048,38.89085164410131,31.713516928741093,87.288,-0.46042100008391174,2
25.603935730147942,-66.73471485108226,-15.621917082975896,59.68577247149679,-67.19558955283345,34.92718971445729,29.335323570789573,87.292,-0.45642100008390685,2
22.882536427474815,-54.929534244551064,-22.487312727743998,56.62521939005086,-55.80115965733124,28.71303909083173,24.997211721268883,87.296,-0.45242100008390196,2
20.807119500375254,-45.235815215904616,-27.372667967358733,53.61886821922115,-46.509676085922834,23.92775008274695,20.76442146684281,87.3,-0.4484210000839113,2
20.763107309914393,-43.11236518112295,-27.83503179133536,52.33460330642155,-44.792146987503514,23.406995015713346,19.234838327912527,87.304,-0.4444210000839064,2
22.789619189083883,-48.7644781362059,-25.015502262533648,53.41657953543313,-50.873531799663084,26.932757167698185,21.514556306187423,87.308,-0.4404210000839015,2
25.47738873044694,-56.9167418935438,-22.490074263425136,55.86633734362777,-59.407563274011586,31.379880555149096,26.0907728017567,87.312,-0.4364210000839108,2
26.989461408716807,-60.92419415222549,-23.172900751718192,57.74935229960306,-63.59978028878721,33.17034869827468,29.787712786136332,87.316,-0.43242100008390594,2
26.402374672630707,-57.857954396713794,-27.02264280414008,57.71920654126336,-60.42732012801471,30.998138847579117,30.18819726739539,87.32,-0.42842100008391526,2
24.299987041121295,-50.37392730486395,-31.45462888560321,56.060324352731286,-52.61644206953699,26.583024186345572,27.501662679806,87.324,-0.42442100008391037,2
22.206803260535143,-44.050245555584134,-33.823397385697255,54.34128963139107,-45.939114594390205,22.997820299984078,24.26684434376131,87.328,-0.4204210000839055,2
21.425440714454588,-42.82304972387823,-33.54374055739344,54.027212607480344,-44.50722650477954,22.22222185902612,23.199141605090148,87.332,-0.4164210000839148,2
22.259418041835442,-46.53022928574268,-32.013854888815885,55.33234577774398,-48.23017621716978,24.05409960821342,25.128396963935504,87.336,-0.4124210000839099,2
24.12841705244418,-52.24457314989281,-30.774998470711,57.30091568506592,-54.184935986030105,27.011814181424697,28.76336068769914,87.34,-0.40842100008390503,2
26.23941724496543,-57.45173193685887,-29.981290764290755,58.883909784700634,-59.855499370129934,29.9554542667486,32.20974077486487,87.344,-0.40442100008391435,2
28.08820627146103,-61.738293792500656,-28.698273778026852,59.84971650788541,-64.78459094457322,32.71325623357782,34.569979502176494,87.348,-0.40042100008390946,2
29.434162929351377,-65.66000946580151,-26.504607366878236,60.64139714529126,-69.34628894465725,35.32244036893231,36.11290533376205,87.352,-0.3964210000839046,2
30.03565637023843,-68.59226331229065,-24.506216644546043,61.45799304479477,-72.6212430590406,37.07574431303546,37.15032928780862,87.356,-0.3924210000839139,2
29.64112985742299,-68.3466035455802,-24.56105695211365,61.671934413157814,-72.24638387101898,36.71632899402043,37.124651104111614,87.36,-0.388421000083909,2
28.32039073572587,-63.24690846459238,-27.46315921510331,60.328329083558636,-66.75541082752409,33.73776751764216,35.0789911702931,87.364,-0.3844210000839041,2
26.70550129772523,-54.49911822444899,-31.975831432209915,57.28231901923414,-57.9309252327485,29.369331227758902,31.04872334468915,87.368,-0.38042100008391344,2
25.70965678347568,-46.12276300951419,-35.76013281414738,53.76088815445725,-50.3305395237506,25.988227806304554,26.754662603174683,87.372,-0.37642100008390855,2
25.83906610235465,-42.07501241858148,-37.32191294219865,51.61616188926412,-47.90750833828755,25.279309638933782,24.569896068515124,87.376,-0.37242100008390366,2
26.71560177061033,-43.073060680721355,-37.09406637958088,51.82401710560531,-50.700232291654515,26.817474744112477,25.51026573162864,87.38,-0.368421000083913,2
27.316431599906235,-46.07016992307994,-36.680541724678626,53.59257158522,-54.74101067155808,28.44742483817521,28.135294296015193,87.384,-0.3644210000839081,2
26.785908734361595,-46.9054956995555,-37.128652800241596,54.95067346145838,-55.390637810764446,28.15401395931955,29.534190155422028,87.388,-0.3604210000839032,2
25.133023838057607,-43.74740189504321,-37.97585770986888,54.34294421272845,-51.146806517324286,25.734202512949864,27.659895558500445,87.392,-0.35642100008391253,2
23.234250267099803,-38.37039492803869,-37.90987906005026,51.84996104484049,-44.65654094161654,22.841213312881145,23.01139030488406,87.396,-0.35242100008390764,2
22.193204317618825,-34.44234914801691,-36.214244133853775,49.02493444855905,-40.3485706268843,21.536901048042427,18.250124094534677,87.4,-0.34842100008390275,2
22.633284281511415,-34.634959429395394,-33.477052954168215,47.595770126501385,-41.05872212433547,22.77004998662992,16.17163011325635,87.404,-0.3444210000839121,2
24.445772867374103,-39.043549087549955,-30.941821124939928,48.22009793772328,-46.49703487566219,26.020489292360587,17.796044990694078,87.408,-0.3404210000839072,2
27.027489326252702,-45.7976959888611,-29.320967701414098,50.27969715864554,-54.29914320446621,30.079631965941523,22.030988443901624,87.412,-0.3364210000839023,2
29.659021306656978,-52.72732583771546,-28.343596128403505,52.665156208242344,-62.071812430332955,33.96149398444634,26.85706289710624,87.416,-0.3324210000839116,2
31.73005668317386,-58.45106051550702,-27.387986262991696,54.67377006225566,-68.48776265137869,37.144961572392575,30.778021112055292,87.42,-0.32842100008390673,2
32.826703886904774,-62.37249773891633,-26.348358925022133,56.24341374081974,-73.01356587576595,39.28952093759996,33.37478397437991,87.424,-0.32442100008390184,2
32.838887631925225,-64.2915590061315,-25.719531409700423,57.52830100307998,-75.32376486739767,40.10011641673086,34.86755023149348,87.428,-0.32042100008391117,2
32.08197530463342,-64.37453473976055,-25.864316000930934,58.43598884334224,-75.35658767019054,39.61799330200359,35.45948096090277,87.432,-0.3164210000839063,2
31.227941625004075,-63.34482339511492,-26.402521486951677,58.63090904928607,-73.75374822592919,38.48787120252204,35.15437123118357,87.436,-0.3124210000839014,2
30.929008870684083,-62.237116751361825,-26.520013831607216,57.90995031871143,-71.740907764901,37.64356100076506,34.015518157709465,87.44,-0.3084210000839107,2
31.347065616115454,-61.5879110241624,-25.907747158198692,56.46230645287583,-70.18623773330853,37.52811052574741,32.34441332093091,87.444,-0.3044210000839058,2
31.99685676975859,-60.826563529330485,-25.246480148689763,54.720295866531266,-68.74354426827215,37.622478945441635,30.476956364560852,87.448,-0.30042100008391515,2
32.09746271184707,-58.69704091831603,-25.584630875348775,53.00491239499005,-66.15531677216032,36.874988581308536,28.459624877679442,87.452,-0.29642100008391026,2
31.17471213004522,-54.54334209076575,-27.184581297318893,51.389790968465576,-61.63434533512217,34.72074020927782,26.077025415418188,87.456,-0.29242100008390537,2
29.417769398503705,-49.27696347324544,-29.087798181821007,49.92282252040079,-56.00250022922957,31.717058212069777,23.309611753321715,87.46,-0.2884210000839147,2
27.51459566249285,-44.98561067036411,-29.971988124216185,48.901662711572484,-51.359962590808,29.146646184934536,20.754656826388413,87.464,-0.2844210000839098,2
26.152278277049643,-43.405297804897266,-29.500901863939298,48.809348203680145,-49.480895904510874,27.953783240103885,19.471685852513737,87.468,-0.2804210000839049,2
25.61821936849385,-44.60316349858867,-28.75790161185585,49.88959592597597,-50.420614551199556,28.034375986521596,20.239488380652666,87.472,-0.27642100008391424,2
25.768040499796538,-47.04340369328213,-29.219487063672783,51.77301214800584,-52.622572048864484,28.52023223327996,22.824177924737036,87.476,-0.27242100008390935,2
26.259265465954307,-48.89890068039037,-31.23018382168545,53.57819820664095,-54.332482567629015,28.68858859932357,25.935514797785988,87.48,-0.26842100008390446,2
26.767838618616345,-49.34301412600435,-33.52920912385903,54.4703141105444,-54.89230145274985,28.539838337054427,27.986533636398054,87.484,-0.2644210000839138,2
27.038415547399016,-48.706643846465916,-34.38971267579855,54.20997641951129,-54.73748130804957,28.503255657725475,28.08219020567825,87.488,-0.2604210000839089,2
26.853786296037953,-47.58611369164553,-33.318057676266996,53.225438973553416,-54.32705334156097,28.676668062030764,26.475331377851358,87.492,-0.256421000083904,2
26.06635268083312,-45.97565250082294,-31.652934623989136,52.18668936593979,-53.29599391528957,28.47688238546626,24.194656607862456,87.496,-0.2524210000839133,2
24.688637460132895,-43.310328169784455,-31.444827046857373,51.49855059479233,-50.75904343862101,27.10220763117066,22.224802969166955,87.5,-0.24842100008390844,2
22.908458152024398,-39.235452203706934,-33.66830451990283,51.13697943142545,-46.367743963864356,24.319704672351907,20.906358431672356,87.504,-0.24442100008390355,2
20.95675072681624,-34.14485506571276,-37.45922513572297,50.863527654970646,-40.88063561929859,20.73638785439959,19.928049584547846,87.508,-0.24042100008391287,2
18.93989316739702,-28.856534611480317,-41.04347216256042,50.50065368265948,-35.55166993414052,17.26059757749943,18.750532280625343,87.512,-0.23642100008390798,2
16.825328385260367,-23.825608313377398,-43.36721199448996,49.9897158753028,-30.979165973668902,14.321950209722978,17.034991811250116,87.516,-0.2324210000839031,2
14.62818251920215,-18.880373180430183,-44.80505544455717,49.28676341014165,-26.729422218658403,11.68359612744711,14.816308786854862,87.52,-0.22842100008391242,2
12.623704869450611,-13.920380322179234,-46.32205174206461,48.358329257601014,-22.27083603677161,9.056977293481834,12.47425668048202,87.524,-0.22442100008390753,2
11.340688914858472,-9.860234038776786,-48.06390550310473,47.36528453839129,-18.273545379686627,6.847701504073542,10.644009964244868,87.528,-0.22042100008390264,2
11.259544703298046,-8.580883878265777,-48.925352997065396,46.78102564862111,-16.710357035998083,6.1387875891147985,10.037235970295328,87.532,-0.21642100008391196,2
12.401065114369352,-11.459885107500625,-47.62483485243205,47.133091934233974,-19.227226355770544,7.732865858896796,11.044923408203115,87.536,-0.21242100008390707,2
14.123013933441175,-17.557806826025057,-44.234851273814165,48.44321280191133,-25.065067154122886,11.068505492630235,13.222993025979386,87.54,-0.20842100008390219,2
15.335132888235275,-23.271074579465058,-40.5805212322823,49.89361682407377,-30.623676109600826,14.119081038858221,15.12744117018093,87.544,-0.2044210000839115,2
15.073787549718485,-24.30527257269711,-38.977371219643025,50.21524764964827,-31.579631542916687,14.616664662615598,14.956575473274489,87.548,-0.20042100008390662,2
13.11853847854042,-18.803729369836155,-40.39570013448527,48.67031676910464,-26.181172939398863,11.75075850411017,11.84098869196506,87.552,-0.19642100008390173,2
10.245023620244584,-9.15035307575886,-43.72400869403931,45.83693533472345,-17.00801484529657,6.947328979227111,6.853088680899612,87.556,-0.19242100008391105,2
7.8716432223002535,-0.7080423164772813,-46.788563415922404,43.40791340800934,-9.477418470835191,2.983147340816966,2.711320232108315,87.56,-0.18842100008390616,2
7.225051541806382,1.8419479968498091,-48.163217814128465,43.0129757471591,-8.02126592504075,2.033485873388943,2.0710225799650104,87.564,-0.1844210000839155,2
8.521046461443147,-2.192082264101923,-48.130917219829776,44.98184638868015,-12.897370190231497,4.152610597694309,5.5648662263456,87.568,-0.1804210000839106,2
10.74802007657679,-9.186952003233692,-48.03713669820051,48.103149290186664,-20.180345528737888,7.360294314276931,11.192970549131733,87.572,-0.1764210000839057,2
12.289490735638314,-14.110487907575637,-48.80420864164712,50.5980250533315,-24.87291287068822,9.21140643809996,15.688687192841256,87.576,-0.17242100008391503,2
12.006125189255986,-14.245241631454972,-50.078034897350335,51.45645672013279,-24.520190875407422,8.54996731965591,16.830918175168073,87.58,-0.16842100008391014,2
9.987711664696679,-10.70118198921647,-50.74702138042476,50.985175163666874,-20.424523419489844,6.076953717727378,14.82288624304019,87.584,-0.16442100008390526,2
7.382679979080271,-6.685809941462679,-50.20220679674676,50.18122329557706,-15.755645113857648,3.4197002600054778,11.660058317404305,87.588,-0.16042100008391458,2
5.436819800951642,-4.332537255235299,-49.047720468268736,49.64145615976313,-12.526514089443342,1.640393132960566,9.188102719272068,87.592,-0.1564210000839097,2
4.539007441065593,-3.0126605014751284,-48.595258164469776,49.09011316567746,-10.17925028811367,0.49222005059067275,7.665828296724866,87.596,-0.1524210000839048,2
4.072381867461359,-0.5027347663791332,-49.68552055879617,47.915641557478835,-6.81515608725289,-1.03931165865204,6.054699646140085,87.6,-0.14842100008391412,2
3.1590084648125605,4.3441068212869425,-51.9714655052261,46.06803631136823,-1.6038256097792427,-3.5419223963195448,3.546061913857191,87.604,-0.14442100008390923,2
1.5847402193922433,10.10510126976267,-54.2673091941774,44.326086369813964,4.050936255224702,-6.478920585465406,0.6793656654492767,87.608,-0.14042100008390435,2
0.04001627418395427,13.902123101360878,-55.5327343813504,43.626911785438594,7.648540446352627,-8.596255720693383,-1.0886015052922484,87.612,-0.13642100008391367,2
-0.5349036509501544,13.999573182164047,-55.5615905165381,44.141212804533154,7.8388550196868385,-9.003188342721057,-0.8799584961747101,87.616,-0.13242100008390878,2
0.1355074145541171,11.387566076351545,-54.88216391290829,45.0550057035667,5.616204670331392,-7.927564028441722,0.6154440765463138,87.62,-0.1284210000839039,2
1.3599522219411837,8.917680238030377,-54.19176349356363,45.30100758802646,3.4347984415780317,-6.51907865594482,1.6974036599324471,87.624,-0.12442100008391321,2
2.0659376190241354,8.9290513331533,-53.980560859701015,44.51411811326384,3.2278985980843644,-5.9647153309420275,1.208270527117432,87.628,-0.12042100008390832,2
1.7009379809766505,11.630170408975724,-54.589824036462936,43.26472717346769,5.206840487889075,-6.732727461460138,-0.48012455338603593,87.632,-0.11642100008390344,2
0.6007785213529993,15.56426334616565,-56.34976609094428,42.37507835535361,8.333434119774525,-8.512213825840409,-2.011574425862056,87.636,-0.11242100008391276,2
-0.4731993407570354,19.346216807037916,-59.36210125399378,42.06632058198944,11.629859274228412,-10.695499653079471,-2.5115964154254633,87.64,-0.10842100008390787,2
-1.1093114010263798,22.719427474579053,-63.019656120952774,41.83908822475711,14.804280649219917,-12.802168985906146,-2.431659840670719,87.644,-0.10442100008390298,2
-1.5417387834625214,25.935734631923253,-65.87141403914589,41.19641093216711,17.649367394237707,-14.469066944174113,-2.899293191545508,87.648,-0.1004210000839123,2
-2.2059167543092593,28.420536267394898,-66.29931284040126,40.40157866260195,19.184198867435267,-15.220447520332822,-4.2806366823887325,87.652,-0.09642100008390742,2
-3.073212212632293,28.53827078365767,-63.711061489512204,40.39069558544733,17.891179740989255,-14.51890099165853,-5.51697141629118,87.656,-0.09242100008390253,2
-3.5198677554173194,25.08385664611253,-59.29856932933396,41.83157823940379,13.191375120718607,-12.25677703161725,-5.031595889866382,87.66,-0.08842100008391185,2
-2.9294158776388373,19.11333311775994,-55.56981804916817,44.253672127895015,6.752438755935618,-9.240240684744355,-2.3799693900391654,87.664,-0.08442100008390696,2
-1.4418531280457931,14.035421474666466,-54.801304363446654,46.19302793506544,2.024486859092806,-7.024859100453341,1.0150803231211318,87.668,-0.08042100008390207,2
-0.05149540650477714,13.376863035917218,-57.49456485401178,46.338126100981476,1.9328766810490006,-6.975836817480863,2.874031260049759,87.672,-0.0764210000839114,2
0.1429309813178753,17.942545477501458,-62.01685402124174,44.65965950913531,6.521074297850543,-9.209660675999318,1.9603044314359162,87.676,-0.0724210000839065,2
-1.1044646086602135,24.922671110137824,-65.73137348346306,42.46466073439099,12.666956416477232,-12.345950643511491,-0.8724995253712259,87.68,-0.06842100008390162,2
-2.9063190887201316,29.911663437002314,-66.77779325774225,41.29986256455839,16.314804104287663,-14.403778026166338,-3.4384397332196155,87.684,-0.06442100008391094,2
-3.917250631454956,30.20408162833903,-65.1834764600596,41.69597330501946,15.439730130255592,-14.188803741616022,-4.050254230483454,87.688,-0.06042100008390605,2
-3.366664181183256,26.569892866382727,-62.54942274033285,42.86792821759858,11.269032231492087,-12.044619512556835,-2.746146881400413,87.692,-0.056421000083915374,2
-1.547396941917444,22.109127401335535,-60.68441878612643,43.56605211886825,6.82823233712546,-9.369877354242774,-0.9017187750425525,87.696,-0.052421000083910485,2
0.5936767150982711,19.431261537918576,-60.33260932504619,43.21587938348658,4.261328225998347,-7.388943485352614,0.2194069478970659,87.7,-0.048421000083905597,2
2.275650713229097,18.79707408371188,-60.9504779921827,42.296033511868984,3.379893566129868,-6.305225511506863,0.5070516287497695,87.704,-0.04442100008391492,2
3.320396658064247,18.72721583639636,-61.541011865049605,41.70987561632516,2.59643899720872,-5.545916536864227,0.7330012939193891,87.708,-0.04042100008391003,2
3.9073421651255877,18.100329139814484,-61.66970887439579,41.87139441485821,1.0604021294144106,-4.716462649372186,1.4467036745553201,87.712,-0.03642100008390514,2
4.090879261038813,17.39337847730542,-61.71633988827148,42.41281276031133,-0.29614431460102736,-4.185366638327603,2.300780342544586,87.716,-0.032421000083914464,2
3.7268607168575283,17.773240555797017,-62.192697600262946,42.7141789996923,0.09161166927196873,-4.623478102874107,2.5102837615182674,87.72,-0.028421000083909576,2
2.9128793088990643,19.11351460961036,-62.86831725360237,42.620023058289455,2.28000633026886,-5.953424280326319,1.8953182268609772,87.724,-0.024421000083904687,2
2.3648917837339054,19.254028533457436,-62.654645826602376,42.58144289241874,4.018041991892476,-6.888283746902689,1.3245243720025464,87.728,-0.02042100008391401,2
3.1072892708458215,15.636607220870847,-60.492078665727675,43.11353682703948,2.4015333868184396,-5.766104475880844,1.9992164360339466,87.732,-0.01642100008390912,2
5.5601367247650195,7.982111625502652,-56.495810368070195,44.17241180656956,-3.345993145804204,-2.102794668625185,4.229938025662365,87.736,-0.012421000083904232,2
8.855723092179934,-0.6022850890277807,-52.269678038618515,45.10444275789932,-10.567946728619189,2.56635907114047,6.913384935045769,87.74,-0.008421000083913555,2
11.180042960475774,-5.4320273252233795,-49.95748804376608,45.20128716632486,-14.762687100942143,5.504635831832791,8.266236511298182,87.744,-0.004421000083908666,2
11.044747791165168,-3.652959666412236,-50.708640876215604,44.286217537270915,-12.897126980535328,4.745500325278066,7.182261869449027,87.748,-0.0004210000839037775,2
8.471869623491202,3.599742135511057,-53.79286376035141,42.77952510821256,-5.702775835952152,0.619628313986241,4.024874415102531,87.752,0.0035789999160869,2
5.041937297672388,12.080270964611959,-57.090202092559366,41.267352915090775,2.9040702070005353,-4.448305446638619,0.2448761548223643,87.756,0.007578999916091789,2
2.7135341372497876,17.502063771254214,-58.55249584654813,40.083886955970435,8.656893126915866,-7.697281591543049,-2.7066005532990856,87.76,0.011578999916096677,2
2.4039727002693234,18.194124999249443,-57.476537505821945,39.31067247006245,9.622402677230504,-7.878505897518155,-4.176129443471585,87.764,0.015578999916087355,2
3.517831016389392,15.372907698730286,-54.674475954076236,39.066496856691735,6.7471890271564,-5.754816888959666,-4.275131755931896,87.768,0.019578999916092243,2
4.741954129909268,11.300270186837528,-51.58751606777092,39.6260369260362,2.304296165437759,-3.051068029017644,-3.3339733114321586,87.772,0.023578999916097132,2
5.308309384151162,7.277747361534427,-49.18590494122639,41.13998185063082,-2.0636242559959124,-0.93693361182307,-1.5395757872710059,87.776,0.02757899991608781,2
5.582120922043473,3.1439233810732445,-47.49729655355697,43.2551430190105,-6.08483379302714,0.663819189817742,0.9371238346391817,87.78,0.0315789999160927,2
6.5276099553938085,-1.7291280802073554,-45.94368781762372,45.13628011110898,-10.185428374397324,2.5481348563044874,3.6462193494211386,87.784,0.03557899991609759,2
8.639890610469898,-7.2563408620256515,-44.014008368198915,46.010616982930024,-14.45120294549336,5.188022363821801,5.883022218496214,87.788,0.039578999916088264,2
11.354596540902998,-12.440177593158003,-41.6770027009761,45.78245160856485,-18.2871389723239,8.168652724715718,7.098618392274454,87.792,0.04357899991609315,2
13.437626090705995,-16.15694190953417,-39.302733940073296,45.12658915332324,-20.916312976025658,10.521953527941275,7.289820053662616,87.796,0.04757899991609804,2
13.960744444228418,-18.061502017629284,-37.28259239628595,44.9453324666124,-22.08036464726984,11.54677149845791,6.971610651886352,87.8,0.05157899991608872,2
13.008604310361099,-18.863831509581455,-35.685671933055545,45.68804326378922,-22.317275846472604,11.38505255345402,6.785079161505265,87.804,0.05557899991609361,2
11.574866044496586,-19.928155436014062,-34.17322248703578,47.148867917785196,-22.713550951692156,10.943162404422504,7.14803250803773,87.808,0.059578999916098496,2
10.813768174069647,-22.590754738841234,-32.205292476580844,48.85776471000278,-24.394646012253236,11.294349426041126,8.224810917561765,87.812,0.06357899991608917,2
11.273828550734738,-27.518383237317078,-29.427818847160104,50.58835278452008,-27.99406881420728,13.008838025999651,10.069251537429992,87.816,0.06757899991609406,2
12.638280148558097,-34.243940336528425,-26.020609745906615,52.43875909985448,-33.23064289362955,15.809306862444053,12.60884686520801,87.82,0.07157899991608474,2
14.040004055917601,-41.08273408727026,-22.745323113229087,54.452472104155476,-38.79506752275003,18.710557360875782,15.420091202300533,87.824,0.07557899991608963,2
14.636262957266858,-45.733047349701565,-20.56368209394734,56.275419807222804,-42.81733468384832,20.556176003322786,17.6462053596848,87.828,0.07957899991609452,2
14.06197134349056,-46.54007535411361,-20.011748955470587,57.317152966879384,-43.89918210309241,20.67588384878745,18.39599825351923,87.832,0.0835789999160852,2
12.556130599987744,-43.713360775311294,-20.78876476114793,57.32077686185305,-42.12234544143538,19.291395349017026,17.456168167036797,87.836,0.08757899991609008,2
10.767588573955342,-39.45687881314956,-21.939581214646626,56.74893333749185,-39.175580084425555,17.385698505815988,15.669819694958589,87.84,0.09157899991609497,2
9.3749130302862,-36.6060109702297,-22.54578751166267,56.509330239039365,-37.262283222358526,16.062093896980404,14.467744537944933,87.844,0.09557899991608565,2
8.709098053827738,-36.62186091952131,-22.37382896925427,57.18659666584222,-37.47014099099911,15.796087615155047,14.774048544949713,87.848,0.09957899991609054,2
8.573395905394749,-38.52461795602789,-21.92717943813732,58.47504552213927,-38.88911037189497,16.1206552749648,16.17181106356138,87.852,0.10357899991609543,2
8.384649068125135,-39.72615376739916,-21.870171314929436,59.373959600199264,-39.29097659439944,16.009770952107186,17.11892205629648,87.856,0.1075789999160861,2
7.590440882796933,-38.16812985231661,-22.360830466924085,59.020109125213445,-36.940131831943354,14.707309891820849,16.151232251352845,87.86,0.11157899991609099,2
6.115935604044912,-34.05035253158342,-22.897062636747886,57.444179275967805,-32.143711007188124,12.394308921962722,13.136702373544013,87.864,0.11557899991609588,2
4.517621554834687,-29.765470984216638,-22.78141882179148,55.60192982598307,-27.304699579710867,10.187514490719359,9.544523514181883,87.868,0.11957899991608656,2
3.676891367236446,-28.139520801040725,-21.742866446306063,54.67159265260309,-25.38330899566363,9.440537215588835,7.476675007582074,87.872,0.12357899991609145,2
4.190510177667803,-30.403295564774343,-20.162536238402613,55.221894489957016,-27.86583744624127,10.814792742765345,8.204471839028082,87.876,0.12757899991609634,2
5.8803555556794205,-35.40992889364619,-18.77003270205954,56.90407478850082,-33.684855625758885,13.756478977370133,11.32390789991427,87.88,0.131578999916087,2
7.821116639460855,-40.539245464757336,-18.140943979765783,58.823740938152255,-39.847068563975576,16.762987139059177,15.119413291826433,87.884,0.1355789999160919,2
8.934234227231785,-43.48141309271237,-18.39669875633526,60.19928511612711,-43.35309437628092,18.313757008489585,17.7839298734801,87.888,0.1395789999160968,2
8.746660845371869,-43.605868032582094,-19.22120742409357,60.77785926433885,-43.12158440764236,17.876509778569602,18.54762997603774,87.892,0.14357899991608747,2
7.721951348181154,-42.06899617658352,-20.053137375279416,60.78586351355797,-40.59054281063449,16.274142239025895,17.930719261732452,87.896,0.14757899991609236,2
6.849689057202539,-40.71077650658696,-20.32813077872397,60.587658330531035,-38.51050407104614,15.060999802047549,17.051064166575944,87.9,0.15157899991609725,2
6.772575464952352,-40.54320658365286,-19.76703402069963,60.37535468116419,-38.71116500132026,15.267302919824573,16.606172539731652,87.904,0.15557899991608792,2
7.1712188048746786,-40.88629415847816,-18.649608449839697,60.07980211664369,-40.49754062944612,16.454629117992496,16.32779319825314,87.908,0.1595789999160928,2
6.990961726894944,-39.84410776721062,-17.81581034362891,59.487154341767976,-41.0634034979796,16.943839252161357,15.301366287994876,87.912,0.1635789999160977,2
5.407498602803547,-35.935309639218374,-18.15946840919323,58.445745546175694,-37.84723374485048,15.21393745454032,12.87483018974253,87.916,0.16757899991608838,2
2.7330872839032443,-29.742553271977695,-19.81463651637824,57.050487155889265,-31.070060318949395,11.416332486681222,9.427343180831583,87.92,0.17157899991609327,2
0.40921714839062107,-24.154018132985577,-21.725015113433788,55.70509700548504,-24.230712511934506,7.64528686616239,6.350144738315856,87.924,0.17557899991609816,2
-0.03997127084154567,-22.630023478924873,-22.20639674463594,54.977489813201856,-21.77257381803865,6.500609496939565,5.170866002299612,87.928,0.17957899991608883,2
1.7154694867440898,-26.530220559522817,-20.30280928787244,55.25845302238617,-25.52571966461913,8.956575706352515,6.428251296531662,87.932,0.18357899991609372,2
4.405756250487874,-33.601662435199835,-16.860282194454403,56.41438976654626,-32.83817213970453,13.31895343691776,9.16101731540691,87.936,0.1875789999160986,2
6.0447724937104,-39.12294607444114,-14.230316659670779,57.73334860811952,-38.18504848569217,16.294654296107808,11.465535821866364,87.94,0.1915789999160893,2
5.415293627131681,-39.141723815289396,-14.586997766915294,58.317895028882056,-37.21617697944886,15.443671197717268,11.768038707922573,87.944,0.19557899991609418,2
2.9321721580474316,-33.386160328779276,-18.12672155003853,57.71528550619375,-30.05907028462114,11.04819357026793,9.876300928929837,87.948,0.19957899991608485,2
0.19658935842317896,-25.493239295217375,-22.69566755037168,56.299505157988094,-21.192056601784266,5.865201163537002,7.019667767425111,87.952,0.20357899991608974,2
-1.3137488083318083,-20.302382676385534,-25.280398125165082,55.03941839054614,-16.009636790712523,2.9943475237132735,4.872400486335557,87.956,0.20757899991609463,2
-1.2771105077242275,-20.365137856144955,-24.219640552255676,54.77527052534095,-16.901969641297768,3.640004989240744,4.348583042840956,87.96,0.2115789999160853,2
-0.4872071203739357,-24.422004179872967,-20.35857606426345,55.57485835419741,-21.93196391886325,6.5274524020219795,5.097440527154213,87.964,0.2155789999160902,2
0.04990014955046803,-28.881183857923883,-16.254216784098766,56.71746026242506,-26.885128127001416,9.24150205582399,6.011666301224563,87.968,0.21957899991609509,2
-0.02804766013878683,-30.848886930700967,-14.162625095711702,57.3304781372279,-28.7077957993211,10.183835671467726,6.233041677176955,87.972,0.22357899991608576,2
-0.3329942936709083,-30.166564859657083,-14.474947366527065,57.12968537992619,-27.49811570228535,9.54152857428933,5.801408267924906,87.976,0.22757899991609065,2
-0.27322847988082605,-29.01220339332076,-15.765673376906935,56.617311947524605,-25.768084347608568,8.718115830308863,5.4837618198836875,87.98,0.23157899991609554,2
0.3990457173661643,-29.76027628437964,-16.2099393000504,56.57794275769023,-26.042903151763756,8.996829514659265,6.039300746478161,87.984,0.23557899991608622,2
1.5202528744821018,-33.06108748067299,-15.071451144950203,57.34504391277174,-28.95497262515429,10.631851804476472,7.5903626590471625,87.988,0.2395789999160911,2
2.8163257582667955,-37.590647529455865,-13.083195488036827,58.51083259683791,-33.16656093776255,12.930573802779138,9.582671797371436,87.992,0.243578999916096,2
4.127407939658073,-41.35794200141795,-11.590951967346356,59.336105718303564,-36.76932243545038,14.976633797214792,11.278068949038278,87.996,0.24757899991608667,2
5.33773386530487,-43.28453683724093,-11.3340880904991,59.46950917990159,-38.78422276010287,16.2754493466273,12.320155296009169,88.0,0.25157899991609156,2
6.221765604404368,-43.81714377410725,-11.904432329353284,59.30173724009853,-39.64145226438955,16.90771597364378,12.931809549703397,88.004,0.25557899991609645,2
6.512330944323532,-44.28206056085905,-12.239766756868569,59.61397367828857,-40.51124440477127,17.267772067703948,13.638995032182848,88.008,0.2595789999160871,2
6.167560201414575,-45.64272915572313,-11.627050767821851,60.822727425353,-42.16923391484453,17.68660590656824,14.762120305053768,88.012,0.263578999916092,2
5.49689138129804,-47.63721667335045,-10.325483087907454,62.49493081944968,-44.252073913664304,18.171774426274112,16.051177047900467,88.016,0.2675789999160969,2
4.9206133122774185,-48.90731020132463,-9.303130489594519,63.58231434351605,-45.40121755318646,18.37368558159137,16.735045006720785,88.02,0.2715789999160876,2
4.572182998316081,-48.024769130312215,-9.353100177614326,63.208662309036875,-44.21491060496108,17.813211963024166,15.998722642510506,88.024,0.27557899991609247,2
4.189239341979891,-44.69416841229613,-10.3798208981422,61.374844649383725,-40.39535702711332,16.286026091280785,13.619236254907268,88.028,0.27957899991609736,2
3.461436589124447,-40.22989483497165,-11.494146505181561,59.016105009504514,-35.25577447656062,14.173954077482,10.328320140602901,88.032,0.28357899991608804,2
2.4887649071777584,-36.855662380153255,-11.839787707631194,57.376239588374894,-31.089092678615373,12.348053740609508,7.571484530237704,88.036,0.2875789999160929,2
1.8332615438096294,-36.253365892846155,-11.391892243291782,57.19747095341763,-29.72749546189618,11.627960957304117,6.714060143502791,88.04,0.2915789999160978,2
2.04594051865592,-38.45115570633002,-10.94762845399884,58.329228329799314,-31.352235852995033,12.195519801761646,8.180331363107028,88.044,0.2955789999160885,2
3.113177218280125,-41.942778055783286,-11.259559010606731,59.97892817656998,-34.51924146235664,13.490344553941581,11.139128579955019,88.048,0.2995789999160934,2
4.383511456020051,-44.901477463356045,-12.128754292942261,61.310238522858356,-37.357782542959,14.70487953724344,13.989384783135474,88.052,0.30357899991609827,2
5.064002471948735,-46.3703255482407,-12.430966431334387,61.876589478902275,-38.83210307820014,15.397007837413767,15.295795269510439,88.056,0.30757899991608895,2
4.805873095132692,-46.366018787812386,-11.226390537580464,61.615129145309226,-38.91675040155443,15.596622865811753,14.491534620693617,88.06,0.31157899991609384,2
3.8308702313473257,-44.97337799761322,-8.983639619230386,60.57044324953348,-37.6822226710686,15.326355402971382,11.911571404060076,88.064,0.3155789999160845,2
2.5444101402169905,-41.62410533342296,-7.632142268578626,58.74670176147613,-34.505938987489984,14.15204004630059,8.319034641497874,88.068,0.3195789999160894,2
1.103626172682956,-35.61839390688635,-9.104332490383788,56.29092702791685,-28.57118058233156,11.43483681389657,4.464516965105334,88.072,0.3235789999160943,2
-0.5921907481625336,-27.556457551684755,-13.485311798402925,53.788374369288746,-20.385588211469322,7.20739475842218,1.0237791820086763,88.076,0.32757899991608497,2
-2.5222571500362916,-20.093725981801974,-18.472415688753706,52.23715047369622,-12.665345277424256,2.780280375745988,-1.2636867514259693,88.08,0.33157899991608986,2
-4.255800318195678,-16.762194054063627,-20.862013029907992,52.518877355598086,-9.177864634287149,0.23208545533796984,-1.6930907744816113,88.084,0.33557899991609474,2
-5.1445501676876475,-19.421536753126794,-18.990885404858286,54.700720418846885,-12.033667431970938,0.9491307964393636,-0.05921145764251519,88.088,0.3395789999160854,2
-4.863480364876552,-26.49007301755976,-14.091299739692108,57.790673195107466,-19.687124234082624,4.414475574470333,2.9268285866333077,88.092,0.3435789999160903,2
-3.7713266472157345,-33.746857885298915,-9.34946208248223,60.28357388270938,-27.65424056736012,8.412206327887803,5.8261069717598275,88.096,0.3475789999160952,2
-2.709727031028055,-37.30387717796323,-7.424257331213684,61.1648363807212,-31.6637165556449,10.617419046904377,7.319322668224395,88.1,0.3515789999160859,2
-2.3952040030402464,-36.313349824175035,-8.52863243394335,60.57660553588886,-30.683649937069056,10.266527952781862,7.077702709556961,88.104,0.35557899991609077,2
-2.9392533941604473,-33.09128580493302,-10.663802856855002,59.56515137340847,-27.225678846137622,8.480437658284284,5.874431870393371,88.108,0.35957899991609565,2
-3.895017917892749,-30.607496693336124,-11.68149009152951,59.09214665133381,-24.69339118880826,7.006579511064668,4.778669729168198,88.112,0.36357899991608633,2
-4.736477871023155,-29.64333216038909,-11.266280925161722,59.14756604581126,-24.176788273583078,6.556206045935402,4.119107138410424,88.116,0.3675789999160912,2
-5.312212027034272,-28.16888067639939,-11.087800391173316,58.74198504216517,-23.55830505522483,6.233344480948214,3.1518686267184925,88.12,0.3715789999160961,2
-5.892892031969783,-23.431959732617447,-13.07328858326697,56.80142942286475,-19.66791287322976,4.513402504889006,0.751221293330246,88.124,0.3755789999160868,2
-6.822213874598029,-14.816865086395982,-17.422557253100905,53.198000100116055,-11.49001152712887,0.8282289961353997,-3.474581355027599,88.128,0.3795789999160917,2
-8.103617128043787,-4.925773534348606,-22.15535273712381,49.030035217245654,-1.564823640742124,-3.6728062426578587,-8.607661934329444,88.132,0.38357899991609656,2
-9.26086612790699,2.0129832628953324,-24.58020282687398,45.91872771609819,5.5884487897693065,-6.822085143503986,-12.857005670477804,88.136,0.38757899991608724,2
-9.565836931893568,3.0173620707723203,-23.413408884796606,44.91932143924234,6.621681185102477,-6.958241895358541,-14.620876983068396,88.14,0.39157899991609213,2
-8.469993474598542,-1.7872310408914174,-19.793047879138108,45.919697977931335,1.510802704227715,-4.0307154751358505,-13.34951281239509,88.144,0.395578999916097,2
-5.97099213162729,-9.54047886083657,-16.436232165692704,47.916277374898826,-6.77585709178027,0.48411653958667006,-9.676833664548642,88.148,0.3995789999160877,2
-2.6960074951483324,-16.626072867336926,-15.709986099646535,49.804384157106945,-14.462681106217202,4.621459316612025,-4.931095905369898,88.152,0.4035789999160926,2
0.3758925809476518,-20.641458482277837,-18.137564074345242,50.98248327264073,-19.138254186734645,7.060095945838184,-0.501195056068797,88.156,0.4075789999160975,2
2.442782650279005,-21.19610725629216,-22.343744567018852,51.3855254916797,-20.523826948187644,7.636782768747827,2.5985878607921378,88.16,0.41157899991608815,2
3.370134525049363,-19.506113416570212,-26.244761757112826,51.146429851601184,-19.845351422882725,7.130902969492824,3.9487592504224085,88.164,0.41557899991609304,2
3.796864757220841,-17.4505351774951,-28.443938629849256,50.3540583177548,-18.739515143113294,6.66235050169156,3.8207153737905117,88.168,0.41957899991609793,2
4.7004455982708055,-16.660648964102467,-28.875131938184847,49.128778486266434,-18.47325289801087,7.089014698092497,3.09079501766844,88.172,0.4235789999160886,2
6.649938185625251,-17.831591856581657,-28.48357496064345,47.80622228615856,-19.582666490993322,8.608336861091916,2.8333359753427128,88.176,0.4275789999160935,2
9.286033866337718,-20.358227640726902,-28.430000728359182,46.88787531915452,-21.71930252799403,10.653048325138911,3.680573386448992,88.18,0.4315789999160984,2
11.493282240718402,-22.56495173099493,-29.44412610370983,46.7078664437323,-23.737081208508634,12.163788419330611,5.3812219394320655,88.184,0.43557899991608906,2
12.234647460756364,-22.712674104804787,-31.60475897340273,47.138404693943194,-24.293256715559618,12.229889711618547,7.007747927449012,88.188,0.43957899991609395,2
11.453070299850694,-20.386546945155022,-34.43122390942987,47.684477393697534,-22.91808927327169,10.818247571170604,7.780064863137728,88.192,0.4435789999160846,2
10.29815065692754,-17.262852781006288,-37.08067916857684,47.945089778931575,-20.837028493927594,9.069466684701219,7.867853322950433,88.196,0.4475789999160895,2
10.402591427219862,-16.382183395890923,-38.61042786127968,48.02058369664672,-20.61960852346885,8.769615089873668,8.41942956689922,88.2,0.4515789999160944,2
12.688925726050389,-20.108030098903228,-38.37177704249051,48.446969228943146,-24.491901990521953,11.1718576562997,10.663956520622452,88.204,0.4555789999160851,2
16.617355072904054,-28.160620527117334,-36.45711828298907,49.669202003001296,-32.39533425903391,15.95188363555898,14.774632357675994,88.208,0.45957899991608997,2
20.49807945024237,-37.35445863991066,-33.87986127563341,51.520732061113755,-41.43403088121029,21.163027502456817,19.486511782941413,88.212,0.46357899991609486,2
22.67533381385794,-43.508711536499774,-32.175077986291136,53.2087159775129,-47.48610294937011,24.39941517434095,22.88642750644921,88.216,0.46757899991608554,2
22.691829168630917,-44.2577169501263,-32.50801272169219,53.86331074839813,-47.99748825537011,24.415610249162018,23.792467760997507,88.22,0.4715789999160904,2
21.540272801361947,-40.628299466323995,-34.87475293928767,53.197483941405025,-43.82065891346779,21.98538239595172,22.600572180360754,88.224,0.4755789999160953,2
20.8245738688528,-36.11308708481414,-38.06898078733566,51.71526769091592,-38.54649425427345,19.286793236459435,20.901927330195086,88.228,0.479578999916086,2
21.51447755922034,-33.94744809872529,-40.55900176022584,50.30101405089406,-35.77016266491868,18.249783934255824,20.211336979499595,88.232,0.4835789999160909,2
23.280425930334378,-34.76123720805801,-41.64624332577887,49.55669416435,-36.474637066706336,19.16303803285501,20.881959473003832,88.236,0.48757899991609577,2
24.893087741716737,-36.45281563604587,-41.955931861872635,49.4459526545001,-38.645970773442116,20.645350224740444,22.07032765040335,88.24,0.49157899991608645,2
25.288700563135805,-36.25753357911211,-42.812604062742,49.496065910428186,-39.33224611205985,20.9528892629863,22.664728017363657,88.244,0.49557899991609133,2
24.382106724086622,-33.155501005807324,-45.006095587792366,49.30303227914019,-37.26091070484234,19.470867739357185,22.266500555858027,88.248,0.4995789999160962,2
22.984955537650293,-28.569231448013948,-48.01614368245925,48.847495473265454,-33.712255492008474,17.114845874011117,21.350333737554813,88.252,0.5035789999160869,2
21.997301943854765,-24.892815418007473,-50.39017249539137,48.36000050964877,-31.00012211854396,15.36681065167048,20.558996926768785,88.256,0.5075789999160918,2
21.65996807032295,-23.32828074759046,-50.95606298719321,47.933561429518406,-30.124794677441393,14.899305526151402,19.916303386232293,88.26,0.5115789999160967,2
21.534269585937263,-23.034804287225832,-49.807254865590714,47.32576846154696,-29.881966645416483,15.074160019744545,18.789827731004255,88.264,0.5155789999160874,2
21.144965126272705,-22.269689601496516,-48.20591898333216,46.190992532083754,-28.257139508457634,14.733485546387204,16.663304888542644,88.268,0.5195789999160922,2
20.5780537307461,-20.284423497863674,-47.52225191807797,44.53156081379137,-24.683328187982887,13.450779120899222,13.929609938487827,88.272,0.5235789999160971,2
20.38599485603312,-18.048556120043663,-48.169896635183726,42.89409889141391,-20.85621719320293,11.973799102799331,11.820777098183946,88.276,0.5275789999160878,2
20.86854920070973,-17.062817944982037,-49.448858038778404,42.03531567452336,-19.175014259304227,11.396939147634313,11.385886220197264,88.28,0.5315789999160927,2
21.47590875844726,-17.452952411241117,-50.34669599362503,42.281769487484105,-20.230527618579927,11.879637911231722,12.392859866282999,88.284,0.5355789999160976,2
21.038044728855624,-17.340295008091083,-50.49445071642855,43.150897551868574,-21.82482047900968,12.232000454365348,13.238623468439764,88.288,0.5395789999160883,2
18.754147266591502,-14.341886552062737,-50.396136441201094,43.63869533891329,-20.685452268870264,10.89832396855376,12.13230868807553,88.292,0.5435789999160932,2
15.090560417372405,-7.991673409512019,-50.769930980691704,43.01231922459362,-15.50363299486194,7.512185603822721,8.650172139276927,88.296,0.547578999916098,2
11.706179515206186,-0.8357088009042049,-51.65768156120475,41.461595269264535,-8.552498169519184,3.5700082476461144,4.308105499511307,88.3,0.5515789999160887,2
10.335713640622904,3.0263113838471334,-52.145915892928606,40.01874701760543,-4.2710217902918775,1.4979430864481074,1.5382225546969315,88.304,0.5555789999160936,2
11.498518761688969,0.9612824990782214,-50.981727943632436,39.75071819109769,-5.8556083871474085,2.816964753326867,1.809852125588107,88.308,0.5595789999160985,2
14.100750101816551,-6.045905581097649,-47.59732119673128,40.86926340694912,-12.684478554301165,6.929793271795374,4.4278985515690605,88.312,0.5635789999160892,2
16.259135743301776,-13.897654847894213,-42.73009671247142,42.51523497005435,-20.703323732206705,11.521562886626782,7.035141692589421,88.316,0.5675789999160941,2
16.65188615979435,-18.161150178356525,-38.155929224876026,43.42096194861907,-25.375781051519432,14.191503510546008,7.428508835792551,88.32,0.5715789999160847,2
15.30421747440482,-16.919056240009585,-35.71720043252332,42.89984492757568,-24.716834614118866,13.960199825401743,5.188829059269523,88.324,0.5755789999160896,2
13.268160125518127,-11.56724105745482,-36.30251966924412,41.32734506122055,-20.071046140109324,11.542926643780055,1.8023750362895161,88.328,0.5795789999160945,2
11.622722648734523,-5.23958221090323,-39.41776784893974,39.73391628930196,-14.398217741342462,8.423385125418308,-0.7244562622693692,88.332,0.5835789999160852,2
10.726129690785141,-0.4473376817210999,-43.55499253765193,38.92423771141252,-9.904760205045754,5.719997777915193,-1.4632747556940748,88.336,0.5875789999160901,2
10.292103994067014,2.0945037391139465,-47.049684773545266,38.93659172083365,-7.092197109080687,3.797919554755317,-0.9792371261439649,88.34,0.591578999916095,2
10.038822214431699,2.821050907460793,-48.85989576212618,39.28549576207411,-5.655973563879013,2.7081504415218562,-0.3376499994832716,88.344,0.5955789999160856,2
10.159880702583227,1.9578775990194108,-48.8456243548129,39.64703360056805,-5.831866712304487,2.727608771021034,0.18509039392568472,88.348,0.5995789999160905,2
11.121352287547296,-0.9185391161108948,-47.53672165421668,40.22082305329782,-8.502783685024886,4.279520145099371,1.3363489694079709,88.352,0.6035789999160954,2
13.004780224948934,-5.890906740632866,-45.72331869991359,41.37037985203569,-13.845461060916257,7.261877931362091,3.8226484931159908,88.356,0.6075789999160861,2
15.09395250072211,-11.428389709764025,-44.207762840842065,42.946854274631,-20.022524269577772,10.53571674576782,7.082153299062904,88.36,0.611578999916091,2
16.200406867883128,-14.514651446792215,-43.746213559174286,44.10895170019985,-23.6551872807039,12.300759600089233,9.305934118498163,88.364,0.6155789999160959,2
15.537427945609164,-12.638326113883112,-44.92160008699148,43.99193072472121,-22.20170192618099,11.297252303072083,8.93501715365313,88.368,0.6195789999160866,2
13.415015806381868,-6.17118102972762,-47.77172253610406,42.66117058980776,-16.365238222028676,7.922445905493747,6.309509486176977,88.372,0.6235789999160914,2
11.12486472498848,1.1301227319332297,-51.4089597090446,41.35037264430196,-10.213543094479455,4.237771560541031,3.7793711417593574,88.376,0.6275789999160963,2
10.039124846298094,4.443454399589783,-54.153700217495306,41.5604297994445,-8.436761796225548,2.652770220006657,3.8946827483818285,88.38,0.631578999916087,2
10.605360260830288,1.5051499565190187,-54.428308917727335,43.70479665919846,-12.699392187932084,4.177718893603815,7.134675335507835,88.384,0.6355789999160919,2
12.028415688611997,-5.393191362254028,-51.93775165313758,46.545658043154056,-20.08213554744069,7.597441239286794,11.241563591779464,88.388,0.6395789999160968,2
12.89261873776724,-10.879112839848524,-48.173326034179894,48.04467944188501,-25.064684382845822,10.276972991748318,12.902852085473679,88.392,0.6435789999160875,2
12.23084251831744,-10.442930525922502,-45.624092125652155,46.9661506445551,-23.571291324116892,10.030107109309316,10.411213703509691,88.396,0.6475789999160924,2
10.199537419689037,-3.699805642464783,-46.11443469651025,43.838160170768774,-15.834724565042938,6.616608796851498,4.994658516708658,88.4,0.6515789999160972,2
7.856647753958944,5.640257815882164,-49.51042069889627,40.44017335050116,-5.851378500211679,1.7405106063162128,-0.31579032755052483,88.404,0.6555789999160879,2
6.283982198183253,12.866637537128218,-53.83117074732114,38.337265012265924,1.8592280030307977,-2.331507269650036,-3.1844347336369956,88.408,0.6595789999160928,2
5.822884024220153,15.604556762412273,-56.666228399276555,37.82683193888483,5.255304885684177,-4.298806369477329,-3.5445428424475502,88.412,0.6635789999160977,2
6.050426671043302,14.597223619886787,-56.73966008701195,38.187077350972004,5.100512014604121,-4.2691237239813145,-2.9264558455129417,88.416,0.6675789999160884,2
6.433805119873969,11.7120729993594,-54.43867331424994,38.80457235882518,2.869138916610375,-2.9714501812421386,-2.4094658991768165,88.42,0.6715789999160933,2
6.977709791668135,7.570244334033116,-51.11631047395296,39.92394284032094,-1.2626405465741675,-0.7390464580051952,-1.3538994874898624,88.424,0.6755789999160982,2
8.200985334797982,1.3269046144999628,-48.00629114681477,42.229492335386674,-8.172822770868741,2.6339335239364297,1.7877981090624802,88.428,0.6795789999160888,2
10.446080841458478,-7.3028644449076845,-45.70683814259319,45.73770708508545,-17.67262962528967,7.075086938919734,7.423457347326892,88.432,0.6835789999160937,2
13.220956125435855,-16.17413250141884,-44.41421240008113,49.240114942601174,-27.02033632587342,11.467227363430347,13.68038279590603,88.436,0.6875789999160986,2
15.311204268866257,-21.376456703614018,-44.3080000855019,51.003129867746935,-32.085951476192164,13.978411245256165,17.477662883438757,88.44,0.6915789999160893,2
15.689330015736143,-20.226873061652537,-45.50063985616089,50.14805953095278,-30.48195776807476,13.41728199334678,16.9547991458525,88.444,0.6955789999160942,2
14.434059514897845,-13.837860570365576,-47.64122880712123,47.4105286517614,-23.78216241481491,10.385326013648886,13.031337611993587,88.448,0.6995789999160849,2
12.760913389242473,-6.636243543815268,-49.775816569380844,44.55022037705283,-16.558096977477103,7.019241846316836,8.639781478061078,88.452,0.7035789999160897,2
12.033660456100153,-3.0063997922659533,-50.82390394009368,42.96777442902956,-12.889600092197641,5.3873424428166725,6.331126496610877,88.456,0.7075789999160946,2
12.594115427886335,-3.9854639577833004,-50.32565036426092,42.79770439433285,-13.411760691555981,5.913076116344717,6.417979075036314,88.46,0.7115789999160853,2
13.483060679357981,-6.9275582788562415,-48.75904963938385,43.20657121070381,-15.461419816354697,7.234267014911654,7.22412882962135,88.464,0.7155789999160902,2
13.347753080101327,-8.272975121961574,-47.12915730230921,43.430532155321444,-15.958398920800477,7.585793657594097,6.9964524520544,88.468,0.7195789999160951,2
11.732044825030679,-6.7220147392345,-46.24852154262826,43.453916678777844,-14.170003095255424,6.383504320872463,5.571073552437208,88.472,0.7235789999160858,2
9.562952569133715,-3.9425579387591356,-46.37628886206202,43.741849777959146,-11.855164801682754,4.559804562650404,4.309404692760666,88.476,0.7275789999160907,2
8.372885866217901,-2.4813829393442037,-47.41934372500827,44.4847725662413,-11.0097401593763,3.4622123357574393,4.59059605551213,88.48,0.7315789999160955,2
8.96737261369587,-3.210741924953767,-49.27365646227858,45.278329465250316,-11.749426999941722,3.511019803084671,6.477103505143228,88.484,0.7355789999160862,2
10.760815692419914,-4.844230697775011,-51.80683298796758,45.60481314326532,-12.5012862356922,3.959587936880888,8.827133148868706,88.488,0.7395789999160911,2
12.369879560223904,-5.765731571881173,-54.518408687245405,45.55011944838177,-12.13071010799336,3.9108991948439082,10.583952163670368,88.492,0.743578999916096,2
12.878703952915991,-6.050081764489974,-56.41828886226981,45.896562181732335,-11.584318284943299,3.451819974025252,11.825602803029524,88.496,0.7475789999160867,2
12.58822379771659,-7.469571053678449,-56.51664391122042,47.383241502393695,-13.16022170227881,3.6742521726690067,13.500719194398386,88.5,0.7515789999160916,2
12.589003237892777,-11.446396860072038,-54.6359554056296,49.82753798378313,-18.02609386427072,5.522860398839671,16.169044509456814,88.504,0.7555789999160964,2
13.62424280866371,-17.066810055138674,-51.78008121898727,52.0095861170865,-24.49703431676296,8.634540506173414,19.075556158965295,88.508,0.7595789999160871,2
15.352836932832023,-21.269913361809078,-49.58990429617064,52.51991710784955,-28.939229657286074,11.37953188913998,20.546761385444277,88.512,0.763578999916092,2
16.69302231278532,-21.22416038571138,-49.24077720251423,50.86212381478934,-28.63996524457748,12.147281103240624,19.40247560198781,88.516,0.7675789999160969,2
16.877322990240064,-16.79950116757339,-50.681773747774045,47.86881621840497,-24.083833458663978,10.711076021050344,16.107893144316062,88.52,0.7715789999160876,2
16.199401346638933,-10.930095023312925,-52.831149103506256,45.11648872486022,-18.621030008288137,8.431460617764643,12.634923445843524,88.524,0.7755789999160925,2
15.773941728612696,-7.560693617457369,-54.496698250226814,43.87784870724389,-15.905471826170338,7.1545770780367395,11.15649617996122,88.528,0.7795789999160974,2
16.582902363630705,-8.944738621717637,-55.189562605390314,44.448766184906866,-17.397465744981023,7.838684674172681,12.661413749378745,88.532,0.783578999916088,2
18.711939981841592,-14.461779193708608,-55.18370024929244,46.249266954518674,-21.941786210953005,10.093830947779926,16.53222776981385,88.536,0.7875789999160929,2
21.423149018930438,-21.650500580398276,-54.91442500279709,48.42362090925328,-27.396975506012005,12.87932802877143,21.235803132252215,88.54,0.7915789999160978,2
23.879286202789228,-28.274284039538394,-54.387676141998284,50.37001445962872,-32.52743138518119,15.535830079006853,25.40426082529308,88.544,0.7955789999160885,2
25.763222717366936,-33.59430277019509,-53.18203937238872,51.869658525912605,-37.44278721832243,18.138534997162118,28.447713120464602,88.548,0.7995789999160934,2
27.241689185995718,-38.00082753289505,-51.014682979142876,52.91036639139902,-42.489162555338744,20.940590547811432,30.412026942170506,88.552,0.8035789999160983,2
28.434917112244975,-41.70197993213211,-48.30324545832489,53.4943859248728,-46.98890521665546,23.603744731353842,31.461082838640834,88.556,0.807578999916089,2
29.037055429687943,-43.90041882717536,-46.154606828051115,53.59719854296355,-49.22822166729064,25.09269224853933,31.556301101326287,88.56,0.8115789999160938,2
28.528877134326585,-43.2797063897966,-45.7084045755091,53.23061631233674,-47.766947223999,24.42190179278892,30.573662949852462,88.564,0.8155789999160845,2
26.779236733307215,-39.33840671587338,-47.313245500941676,52.49042584869495,-42.84649807506494,21.590987040098785,28.637500669779058,88.568,0.8195789999160894,2
24.40796722167146,-33.30950955234663,-50.17453814616595,51.544332685301335,-36.58078262941839,17.833103977571543,26.279426443386637,88.572,0.8235789999160943,2
22.49316517372653,-27.737312515397967,-52.77840112908198,50.5936371278882,-31.703745831001278,14.895881605749496,24.236775568117,88.576,0.827578999916085,2
21.829044363479785,-24.921187322996794,-53.83074655796032,49.833269519451015,-29.86090945642627,13.906022825416594,23.04450662903599,88.58,0.8315789999160899,2
22.368992793855696,-25.403165796393445,-53.06911665655091,49.394415946261745,-30.735528405900258,14.700961699571977,22.7434404191552,88.584,0.8355789999160947,2
23.325373553387216,-27.67665178101797,-51.38281902714055,49.270275871613514,-32.550135520485334,16.09709008775003,22.916866815893073,88.588,0.8395789999160854,2
23.81613124273936,-29.33628809759912,-50.16532049417819,49.28548940436647,-33.413159678220175,16.807684347301663,23.005463275590007,88.592,0.8435789999160903,2
23.494700431321803,-28.765477806166285,-50.37224307007188,49.17741536217678,-32.46244906276546,16.26997390765576,22.65808023784927,88.596,0.8475789999160952,2
22.66761741566278,-26.088386587206855,-51.95523399273464,48.76918070659221,-30.094967413174597,14.81633138580517,21.88545848505594,88.6,0.8515789999160859,2
21.890260703774988,-22.782340172978,-54.02733582051987,48.11243167553832,-27.363333869818838,13.209957010434854,20.960360473568564,88.604,0.8555789999160908,2
21.46949416420643,-20.458245069235065,-55.539039779348215,47.481183601432974,-25.192047275410793,12.040555914085921,20.19809844426875,88.608,0.8595789999160957,2
21.313112440902422,-19.905503081589867,-55.88531897374533,47.22017769387237,-24.029022715497327,11.476352484611473,19.810202151446287,88.612,0.8635789999160863,2
21.186730232584665,-21.0819096613362,-55.01982091262005,47.57188899163081,-24.03631985348547,11.462159032362486,19.917272170863782,88.616,0.8675789999160912,2
21.051283507688563,-23.75058410083799,-53.15498982787056,48.602563542886934,-25.419200023348566,12.03485244326231,20.636074458219312,88.62,0.8715789999160961,2
21.11381399149312,-27.88318499062569,-50.48496275129289,50.23057274003585,-28.41715380002135,13.364133551470575,22.0767812589404,88.624,0.8755789999160868,2
21.54179558243694,-33.321975476389596,-47.24033876471091,52.26503946948446,-32.87539627531169,15.449234397779868,24.181641066710974,88.628,0.8795789999160917,2
22.14667077640503,-39.12371697573304,-43.92771921679234,54.39513259134377,-37.816351794831746,17.795030871257186,26.53095374835115,88.632,0.8835789999160966,2
22.392693953582825,-43.508640581427706,-41.32928590236602,56.185475671239665,-41.56387698161535,19.474026120773008,28.349607719813562,88.636,0.8875789999160872,2
21.782240695099016,-44.81957543901678,-40.06759702131699,57.18169876704527,-42.559549807913776,19.65206810408846,28.830714702014838,88.64,0.8915789999160921,2
20.293272212455847,-42.81354207153873,-40.059620198869084,57.13097352507945,-40.363577858984684,18.198882378675613,27.613612013181626,88.644,0.895578999916097,2
18.45691372894291,-39.06638528667022,-40.42524705210462,56.16686690570669,-36.03699321458263,15.85065084350694,25.05419407520092,88.648,0.8995789999160877,2
16.964088827979857,-35.927705596323875,-40.06107198457428,54.77539740806489,-31.50210147181286,13.725638207490075,22.02575460917621,88.652,0.9035789999160926,2
16.11983403974297,-34.7945912966147,-38.446059806010204,53.52059043795967,-28.308810333551698,12.552401464502662,19.3566354939713,88.656,0.9075789999160975,2
15.62636714388502,-35.200112300504664,-35.96837676435123,52.727976281547875,-26.77667134252489,12.248158453875396,17.342658528072523,88.66,0.9115789999160882,2
14.901249464113812,-35.54444595627085,-33.48134755006643,52.38083438571419,-26.192540102364497,12.195072898983149,15.741176859890622,88.664,0.915578999916093,2
13.654622510927226,-34.78032442016831,-31.531826848618497,52.29748348993945,-25.813064705062573,11.935860191450493,14.237249781532242,88.668,0.9195789999160979,2
12.198295155942175,-33.44031322685626,-30.016248841506734,52.39437746231661,-25.68412378118932,11.622028907291062,12.925984324002469,88.672,0.9235789999160886,2
11.187469074804769,-33.008273636277224,-28.5654616263495,52.76166126390498,-26.474283863323155,11.78585113282639,12.31303765441379,88.676,0.9275789999160935,2
11.014257389684024,-34.259725785774314,-27.1827282440704,53.477882740210745,-28.508057284489766,12.673181754609512,12.785189429830222,88.68,0.9315789999160984,2
11.408239080819598,-36.25888337803867,-26.36998484780574,54.37843574847613,-31.04117240957315,13.83345151826873,14.049914287853095,88.684,0.9355789999160891,2
11.629855412598316,-37.11474388403024,-26.516905419904017,55.06933205792837,-32.657840835684155,14.442094123533382,15.148208545558344,88.688,0.939578999916094,2
11.10718300403443,-35.868562874598865,-27.172741327280225,55.240490923010526,-32.561739147892375,14.104820742445092,15.150548680281428,88.692,0.9435789999160846,2
9.954499636591235,-33.68364049465361,-27.077637559518323,55.00097803380502,-31.53268458880549,13.361057764019202,13.97742720856197,88.696,0.9475789999160895,2
8.907670581215998,-33.06175109865326,-25.150045871188446,54.875418600756944,-31.478029052126896,13.321726607835473,12.585010232160222,88.7,0.9515789999160944,2
8.731769252664707,-35.65928517905436,-21.622052017367505,55.38637756094652,-33.7881678426233,14.686648953350177,12.264709272083767,88.704,0.9555789999160851,2
9.620254967164277,-40.66497483835766,-18.200590280487102,56.55278363572829,-37.926571030736156,17.02501651468958,13.594081031998794,88.708,0.95957899991609,2
11.090305760433655,-45.266891779743894,-16.916352987378428,57.764516865024675,-41.61776509949226,19.023748565931786,15.922438675224472,88.712,0.9635789999160949,2
12.417194323679459,-46.84957114601115,-18.53795515948514,58.193467432357956,-42.59983789245973,19.536734676828814,17.83996776508979,88.716,0.9675789999160855,2
13.185011178871186,-44.99292830806599,-21.92620251270415,57.427553217923005,-40.44975334635879,18.512579557636023,18.24374021269871,88.72,0.9715789999160904,2
13.483146308263906,-41.56173148687095,-24.949858601281928,55.802236727483624,-36.86708726571156,16.96854427670701,17.124750041409907,88.724,0.9755789999160953,2
13.653866697170514,-38.94219566090951,-26.21603547647076,54.156711819899165,-34.178770851744595,16.0493163593914,15.477107112663811,88.728,0.979578999916086,2
13.908894549126057,-38.116092628127,-26.12792141989241,53.23182110128344,-33.43614517275267,16.04775460609055,14.491688964272049,88.732,0.9835789999160909,2
14.197464090855373,-38.26801113096765,-26.362420497087466,53.21217489631631,-33.81274785805445,16.282986823054024,14.750553675883873,88.736,0.9875789999160958,2
