Fz,FC3,FC5,F3,FC4,FCz,Cz,Time,t_rel,idx
-4.847259407188735,11.570888664565485,-45.827008522581494,46.294638357547164,4.55152125816203,-8.023753102842619,-3.719027247661781,101.068,-1.9993614999978035,3
-1.8190868184845321,3.45747612081168,-42.85760611618652,48.189967477441016,-4.076772787152469,-3.2165868808843756,0.3226090044552238,101.072,-1.9953614999977987,3
0.6222254678018961,-2.0381183123831503,-41.18010874497039,49.09029869969593,-9.412666256938767,-0.020641277954847104,2.939010424749361,101.076,-1.991361499997808,3
1.5920678373957395,-2.241046695139313,-40.91471758129776,47.91838029419018,-8.84256296874893,0.3638379678783937,2.1240411457217143,101.08,-1.987361499997803,3
1.4842963896737216,0.8194216419098661,-41.01272651476517,45.474283373893506,-4.865748271046686,-0.8586100038806391,-1.040916615784579,101.084,-1.9833614999977982,3
1.3478413362912491,2.8819116566175538,-40.52669322129736,43.65910633514737,-2.254550923442457,-1.5472916924496452,-3.5603234908666805,101.088,-1.9793614999978075,3
1.8092386019323423,1.4887521283972194,-39.482280395616634,43.77784465757823,-3.642221871042714,-0.652782247120409,-3.2985508741280243,101.092,-1.9753614999978026,3
2.5507619604942184,-2.112233948408539,-38.617291515784046,45.47502680879469,-7.552071267473799,1.039209628030746,-0.7834016656532342,101.096,-1.9713614999977978,3
2.766201196394549,-4.625245762018592,-38.45374756136281,47.18875240904304,-10.332375818019546,1.9470699575925816,1.5093455783708105,101.1,-1.967361499997807,3
2.079687437538103,-4.00408694724044,-38.74945070188811,47.58336480490459,-9.80591596562066,1.3469284329180635,1.5494729393884936,101.104,-1.9633614999978022,3
1.011171018715238,-1.1875724360733937,-38.846885912334876,46.58996843380009,-7.098012599747834,0.02770895660359053,-0.496377460962781,101.108,-1.9593614999977973,3
0.5506811101518282,1.1567517818957924,-38.452681669776716,45.17098629642839,-5.130889408521741,-0.5793023619417793,-2.7155457482357352,101.112,-1.9553614999978066,3
1.265580523627091,1.394897235507085,-37.981220810925855,44.18440773103766,-5.522207029994327,0.15487425820883655,-3.4963319074604593,101.116,-1.9513614999978017,3
2.780507520073608,0.45991171201707626,-38.131317909204235,43.5260245735558,-6.9725145999953035,1.4455415792363935,-3.1081528756833223,101.12,-1.9473614999977968,3
4.080349894843602,0.8357521579558216,-39.19625478297966,42.35741421813963,-6.568165695555807,1.8234572887245464,-3.332553081128124,101.124,-1.9433614999978062,3
4.3171784785976595,4.156563565284322,-40.84009905078941,40.12122784820133,-2.5810665847053995,0.4302654178658052,-5.604069674454302,101.128,-1.9393614999978013,3
3.398366848445351,9.715051432111647,-42.506730258768606,37.30280697306836,3.9059949184492826,-2.3152150458412537,-9.50027486746477,101.132,-1.9353614999977964,3
1.9225826828514976,15.068106710230927,-43.929158988942966,35.192975762997385,9.872551566833433,-5.147193796567137,-12.979863937403138,101.136,-1.9313614999978057,3
0.6507587298935793,17.921502306679976,-45.15410220824013,34.88402191068243,12.672922946973278,-6.914136257683823,-14.060967428305288,101.14,-1.9273614999978008,3
0.028748946033743217,17.559183862273837,-46.12718717716118,36.42020023770234,11.669904582998816,-7.190768902421242,-12.360081549426287,101.144,-1.923361499997796,3
0.07618667420988436,14.891089543593498,-46.4572747962797,38.812473452679285,8.111130879240514,-6.225388488421607,-9.208217265021847,101.148,-1.9193614999978053,3
0.5434548609147645,11.58713806951286,-45.800542653338574,40.804659902267204,3.9306244129666994,-4.599018591152656,-6.4663160011702745,101.152,-1.9153614999978004,3
1.0786205484433742,9.262270648775816,-44.52397221499246,41.67066519116502,0.7854857608058046,-3.0381319301062555,-5.234938004091251,101.156,-1.9113614999977955,3
1.3265114649360845,9.05019599001976,-43.803451025299,41.44804726352671,-0.22079893348462787,-2.334334051736257,-5.466170707962652,101.16,-1.9073614999978048,3
1.075461966396994,11.221728422865992,-44.75245471419969,40.62587736578641,1.3036639856879066,-3.021386927224765,-6.452890099312838,101.164,-1.9033614999978,3
0.4778587112616037,14.709466733651707,-47.229063084556806,39.738995875838135,4.559109633211453,-4.809990841023302,-7.44637702838279,101.168,-1.899361499997795,3
0.11904326034660072,17.136944267150497,-49.539848591802226,39.20652138351468,7.313665634651878,-6.369712752365904,-7.866613201495499,101.172,-1.8953614999978043,3
0.6892570923848519,16.01789868994266,-49.610235176357236,39.343232588363975,6.85338550662238,-6.032818986241098,-7.260719714715512,101.176,-1.8913614999977995,3
2.380115417984392,10.707642126672184,-46.794851130920776,40.28619725033468,2.0093622119270185,-3.1466474438001493,-5.441818432197324,101.18,-1.8873614999977946,3
4.531255716404303,3.4910239642283676,-42.700488875070256,41.79986115023585,-5.370200736607949,1.0759569237532218,-2.827408142943515,101.184,-1.883361499997804,3
5.982338309715029,-1.5808171397299946,-40.09906137373462,43.2251524974889,-11.236467139430994,4.2048696050842125,-0.4960147593925236,101.188,-1.879361499997799,3
5.974364182669486,-1.6236123362897468,-40.706739916638256,43.80028287265077,-12.29184595483232,4.452559773012848,0.3949913794272381,101.192,-1.8753614999978083,3
4.847277938815401,2.712693756371826,-43.73796882037653,43.194935247381046,-8.711998353902423,2.2010920290511273,-0.506031797340425,101.196,-1.8713614999978034,3
3.8486212234225623,7.63267872617506,-46.56808735396781,41.79604901261778,-4.090939412066623,-0.25020956424235,-2.3681126319386014,101.2,-1.8673614999977985,3
4.134519534957722,9.217912400840186,-46.990438184536956,40.442154973882324,-2.4226273055221483,-0.6250437055754319,-3.7564777140456833,101.204,-1.8633614999978079,3
5.810410439170851,6.547945851022204,-45.10993974640822,39.80601624842524,-4.715519609950878,1.3773883510108953,-3.716301533270063,101.208,-1.859361499997803,3
7.860023592801679,2.2299739165560735,-43.227667881943574,39.96046308444166,-8.283038044528956,3.8664461328240582,-2.4062008001509505,101.212,-1.855361499997798,3
9.008430178889363,-0.006916877167924975,-43.86501171692669,40.475623067027506,-9.298219477017325,4.451879204561182,-0.7657843793661148,101.216,-1.8513614999978074,3
8.721777592663013,1.6293140846579586,-47.69402980604067,40.880082764244236,-6.174331698405421,2.2735425809019936,0.3636444819788913,101.22,-1.8473614999978025,3
7.474463701567765,5.96531551072713,-53.11807329659351,41.00819163467244,-0.678172706894201,-1.4387438435236157,0.7870190000440106,101.224,-1.8433614999977976,3
6.155852894896971,10.442203070054235,-57.687074686659614,40.95009779076598,4.014606769382516,-4.628728497550562,0.753042659110506,101.228,-1.839361499997807,3
5.283575201364398,13.44904673326283,-59.949970642004814,40.77266758023543,6.204069949365932,-6.169513177051295,0.41012435482754445,101.232,-1.835361499997802,3
4.7662175301793095,15.169280521366506,-60.17022404415488,40.386140011443345,6.719727888756804,-6.486601543568381,-0.3845403640226828,101.236,-1.8313614999977972,3
4.308907509523214,16.520757851438777,-59.56179803848543,39.6970599707106,7.447552368333621,-6.687845951217223,-1.7246337103035474,101.24,-1.8273614999978065,3
3.9035211111134176,17.72433575090502,-59.037150568512345,38.82117737638461,9.155415412367972,-7.290790540638797,-3.276508541619882,101.244,-1.8233614999978016,3
3.852963876541584,18.111013032844976,-58.65379724543759,38.06662271166036,10.857865558627031,-7.838709808219818,-4.395958126016523,101.248,-1.8193614999977967,3
4.3656051736117325,17.128725629601398,-58.012335429408054,37.69415667490975,11.081099980768858,-7.59948871622318,-4.65776331326049,101.252,-1.815361499997806,3
5.238047459243788,15.128984503633976,-56.898025955409956,37.74218616148091,9.400673212965334,-6.41681662037513,-4.195048761538887,101.256,-1.8113614999978012,3
6.007684281387922,12.927009684485787,-55.426417233252714,38.120711507546496,6.609825523777801,-4.789423934041196,-3.44938982990408,101.26,-1.8073614999977963,3
6.398708189560298,10.727408137671546,-53.70605166053388,38.83165822874044,3.613148185056006,-3.2371337238425277,-2.6277373566518647,101.264,-1.8033614999978056,3
6.55494531866675,7.836807240726405,-51.61282764914137,39.998384355645435,0.5341898105779801,-1.7923152581060537,-1.5191838183691284,101.268,-1.7993614999978007,3
6.808096312467706,3.646132588023967,-49.04021338221283,41.62306911446126,-2.9415547291018886,-0.19554079483833042,0.10001089120012081,101.272,-1.7953614999977958,3
7.256010731389436,-1.22733839459703,-46.30305556507128,43.36754479731554,-6.584569728198575,1.5263392014467205,1.9650689577152043,101.276,-1.7913614999978051,3
7.620318568529981,-5.072921947521146,-44.10333447094747,44.693263763697935,-9.375132385763452,2.8685838821803893,3.369222589823783,101.28,-1.7873614999978003,3
7.5167945970567205,-6.524756662783635,-42.961513636958756,45.29811009554521,-10.408551667160685,3.3076116729259293,3.7723056013752254,101.284,-1.7833614999977954,3
6.814801362097302,-5.793007931411731,-42.69499355377713,45.39458313654772,-9.882397047800147,2.862570815062501,3.298443219281493,101.288,-1.7793614999978047,3
5.707524826982064,-4.327106500686919,-42.55941680053875,45.482579074483645,-8.926906819573905,2.0810181681767452,2.542308051157137,101.292,-1.7753614999977998,3
4.491898421917514,-3.302678904153944,-41.96614735517323,45.82091866054619,-8.43048672744444,1.4743081556467372,1.9121877486611918,101.296,-1.771361499997795,3
3.387108308124044,-2.6783663756830958,-41.02841772130603,46.18293775240255,-8.2823111910237,1.1035277604842515,1.315521467002003,101.3,-1.7673614999978042,3
2.601734265232312,-1.8924309954916185,-40.34341977397144,46.20634388904036,-7.990305010834314,0.8203855822515393,0.5976920437731751,101.304,-1.7633614999977993,3
2.4576211120323257,-1.261062193881585,-40.25564348171573,45.961558914293256,-7.887399867945242,0.8095610513892492,0.17536446582776055,101.308,-1.7593614999977945,3
3.231499619752931,-2.152176716939291,-40.44076750477547,46.03966466398328,-9.218728307500944,1.6145257558916404,0.9259824895878879,101.312,-1.7553614999978038,3
4.729099768949788,-5.3571739970018974,-40.30728307000647,46.94239718279922,-12.603158468117279,3.4074565491821414,3.188662034194517,101.316,-1.7513614999977989,3
6.069603251277061,-9.384392888051908,-39.78016214330123,48.38259657950212,-16.48040871007717,5.28785195073403,5.904911959917119,101.32,-1.7473614999978082,3
6.121361069038226,-10.955818107258642,-39.54316466842534,49.34066318659553,-17.671085077758065,5.624947208990016,7.083096388818301,101.324,-1.7433614999978033,3
4.403129383627206,-7.85389600659489,-40.35707520779189,48.99864036426745,-14.152251377880573,3.4548887825005714,5.506564061872144,101.328,-1.7393614999977984,3
1.6721403579300618,-1.5410274238774777,-42.09332131582346,47.68211236582103,-7.5539699471196355,-0.30894622275999356,2.1430121858295186,101.332,-1.7353614999978078,3
-0.44017145092182575,3.2875910527904506,-43.513868335777495,46.77597371433022,-2.6420735338433468,-3.172419060351627,-0.29503238622633904,101.336,-1.7313614999978029,3
-0.5419589539468811,2.2389809393818374,-43.12444168468185,47.54190496322196,-3.7920844645727603,-2.8257335767159697,0.5033327773136945,101.34,-1.727361499997798,3
1.5903276305038865,-5.288400300609408,-40.343924326528466,49.92983516618389,-11.537898350664332,1.14002560355343,4.510034577561024,101.344,-1.7233614999978073,3
5.052040292811581,-15.93480300487319,-35.909788160484034,52.59464549220523,-22.421414577404075,7.1147187622669055,9.504601195477607,101.348,-1.7193614999978024,3
8.682063233760257,-25.58941737888841,-31.216397803550095,54.1721396907346,-32.212790359863185,12.967343122375558,13.197059495431299,101.352,-1.7153614999977975,3
11.864858232881277,-32.70027269568608,-27.32793969160101,54.563069290737204,-39.256980362522526,17.62455820939821,15.232707016792954,101.356,-1.7113614999978068,3
14.536697309200663,-38.429004831521915,-24.619766460043163,54.8978174344093,-44.688340232133214,21.231448167629466,17.071148612458863,101.36,-1.707361499997802,3
16.583044316010536,-43.819191795917625,-23.201099042011606,56.17236318581828,-49.62393374481988,23.983570665300334,19.905246415619963,101.364,-1.703361499997797,3
17.477469069120218,-47.38531019996868,-23.37969340715691,57.95576130857985,-52.69364459317916,25.162511131304385,22.86290669130029,101.368,-1.6993614999978064,3
16.70373659375867,-46.10528763706552,-25.44449693078311,58.59101185787884,-50.92287722448223,23.64735089723712,23.530562443456244,101.372,-1.6953614999978015,3
14.552308718520475,-39.06201809654704,-28.938738186570927,56.83692377355809,-43.317856898570554,19.468018879243946,20.461361810366007,101.376,-1.6913614999977966,3
12.337866137347543,-29.8423120009595,-32.34651720444773,53.373954481683185,-33.33832419241601,14.6483788682345,15.16695391055801,101.38,-1.687361499997806,3
11.588254815314077,-24.686263365375154,-33.82559118999668,50.59254097115125,-27.204985270743197,12.13366212698059,11.402381912669096,101.384,-1.683361499997801,3
12.83010707461547,-27.573014107140313,-32.52805247564945,50.68281415413981,-29.079679173393767,13.530112248558309,12.137712278869978,101.388,-1.6793614999977962,3
15.116916882808301,-36.713401411423376,-29.311702597051845,53.71464877754563,-37.47159295597746,17.7237094570389,16.94142184705985,101.392,-1.6753614999978055,3
16.817518563630827,-45.873766108531065,-26.098387691277825,57.489093395542056,-46.33370520811133,21.755476385623226,22.24377066312411,101.396,-1.6713614999978006,3
16.991049643788713,-49.48672782610405,-24.390118086387233,59.33626687654665,-49.99052991316909,23.23349626060567,24.30656304471934,101.4,-1.6673614999977957,3
16.104226278807204,-46.972534431168256,-24.26074659171924,58.260855560348574,-47.49454683077459,22.121002392105627,22.241743622400694,101.404,-1.663361499997805,3
15.475645466847286,-42.529048235830814,-24.677143470306742,55.56957923454345,-42.66677638900518,20.371685487285287,18.45605790646673,101.408,-1.6593614999978001,3
16.038931364052583,-40.95579805876056,-24.723384514051848,53.55702599003884,-40.193575421278325,19.93797710488039,16.338823535118905,101.412,-1.6553614999977952,3
17.61486100568387,-43.62425356052244,-24.475166389858803,53.56307484905468,-41.66942052165036,21.12801586144027,17.462888755852784,101.416,-1.6513614999978046,3
19.313529695980186,-48.17329097179749,-24.700135645706496,55.134289452060884,-45.109646914245296,22.771903061221817,20.7633513224864,101.42,-1.6473614999977997,3
20.55731696123001,-51.67325708662434,-25.782079885845167,56.84485948256837,-47.83862974491657,23.79283143774874,24.09895883583895,101.424,-1.6433614999977948,3
21.65298221315559,-53.75798037794374,-27.049190819461998,57.78312460987646,-49.485409570640776,24.454024108879654,26.402449836134817,101.428,-1.6393614999978041,3
23.3637700777954,-56.62393702969935,-27.263575758975104,58.24561825614749,-52.07989182431925,26.016566108542236,28.341450170508583,101.432,-1.6353614999977992,3
25.967390214129825,-62.164462331416416,-25.842590186647037,59.111796610645044,-57.39484942486892,29.22556804623832,31.097147071919192,101.436,-1.6313614999977943,3
28.79013316629091,-69.36386903489914,-23.61151881223314,60.682976004959464,-64.4448575958236,33.22417769254344,34.72295857916203,101.44,-1.6273614999978037,3
30.712553987148983,-74.69330341564765,-22.283477587614158,62.19975512581143,-69.78822906936635,36.050132608650436,37.80256835101732,101.444,-1.6233614999977988,3
31.175153225435757,-75.20584358702534,-23.04446703443666,62.49746035294366,-70.44393730414176,36.30742881796799,38.714205529256326,101.448,-1.619361499997808,3
30.726980143063354,-71.39726691515725,-25.47413769337368,61.14235040215676,-66.69996076400308,34.47181653846141,37.23021828885248,101.452,-1.6153614999978032,3
30.597068599129265,-67.14303118147991,-27.771545752392566,58.97486115253225,-62.214837468686774,32.6288318266511,34.92865282424664,101.456,-1.6113614999977983,3
31.674723558439727,-66.73991156668143,-28.12922093829393,57.573452608777195,-61.306442557580795,32.86639006774561,34.0610088275936,101.46,-1.6073614999978076,3
33.80125908659112,-71.63292095137675,-26.118780515797692,58.112975872639595,-65.75998308533808,35.702407728562484,35.895041864719296,101.464,-1.6033614999978028,3
35.961412183892044,-79.53480874182415,-22.959585738049782,60.55232673899039,-73.73591936216351,39.821194025212556,39.89538089394244,101.468,-1.5993614999977979,3
37.155637793539356,-86.45024510953692,-20.494524042302412,63.73076558493984,-81.42769356155532,43.219766060943584,44.26629327397186,101.472,-1.5953614999978072,3
37.17633728820446,-89.70758258916186,-19.756553527202858,66.19614848091703,-85.87889564096574,44.71912098725003,47.251425000958896,101.476,-1.5913614999978023,3
36.65582429471553,-89.51851592316497,-20.297084299811857,67.09339171055049,-86.69186172029302,44.62066727045197,48.13757866755187,101.48,-1.5873614999977974,3
36.411651025467606,-88.07994674562588,-20.76828522285913,66.52629679650539,-85.55630847870701,44.1113745487294,47.35521807648961,101.484,-1.5833614999978067,3
36.690236390740054,-87.31146851906925,-20.207126506107876,65.27530020209387,-84.35699081346965,44.058719829952665,45.85132941586017,101.488,-1.5793614999978018,3
36.94415697086854,-87.24159784219397,-18.92053591998554,64.1857458293555,-83.56409171461203,44.24241303865179,44.35390963791567,101.492,-1.575361499997797,3
36.30104961498217,-86.25805616915021,-18.238023801777626,63.663957013510704,-82.1067113578816,43.60870530627282,43.02907939404371,101.496,-1.5713614999978063,3
34.31929517470404,-82.79234316071997,-19.35062951880412,63.54849723594146,-78.60659403307567,41.2652807067196,41.616493595234616,101.5,-1.5673614999978014,3
31.419268238436526,-76.90470038404972,-22.2092718971562,63.347088545179034,-72.81669644804596,37.3654724840888,39.7988394615475,101.504,-1.5633614999977965,3
28.653933386774206,-70.4494347739331,-25.408679939556887,62.62373009604684,-66.0737951210434,33.15949046934954,37.49475588236279,101.508,-1.5593614999978058,3
26.996839555220088,-65.72480346004735,-27.183511042272666,61.274182620298674,-60.43361423064168,30.166408200034002,34.90449835740895,101.512,-1.555361499997801,3
26.685281863648385,-63.731814194891356,-26.738994047139823,59.54102157388506,-57.20610335392082,29.10932483865283,32.34128331976572,101.516,-1.551361499997796,3
27.10666762620551,-63.46173686544077,-24.856503253483798,57.81436679709776,-56.0738867529106,29.442835968734336,30.028256479797545,101.52,-1.5473614999978054,3
27.30702107556758,-62.81142068338733,-23.282791856529084,56.408305214589355,-55.52301789679982,29.850845883409672,28.051058263149628,101.524,-1.5433614999978005,3
26.736369663977836,-60.42252661864562,-23.378181829183397,55.48423027681585,-54.26573569707763,29.338167783517783,26.507676420595164,101.528,-1.5393614999977956,3
25.666215695057698,-56.95544175283113,-25.09038899379119,55.12464055171153,-52.482045035110936,28.053764971827214,25.683254563136824,101.532,-1.535361499997805,3
24.95514044746869,-54.686884974114484,-27.060031913520305,55.40269347190057,-51.76621405343642,27.162331354093826,25.992965667608118,101.536,-1.5313614999978,3
25.330667090744818,-55.64056293224658,-27.756234408590622,56.31267704818501,-53.690876703787055,27.82479543080584,27.61953447488859,101.54,-1.5273614999977951,3
26.737220809259497,-59.72221183454896,-26.715060580618516,57.62047811562966,-58.13296412321204,30.095504882337195,30.11703273115316,101.544,-1.5233614999978045,3
28.275143384138033,-64.47175482255159,-24.87873123861719,58.85344491034311,-62.880400905591046,32.677020612460964,32.42527805981771,101.548,-1.5193614999977996,3
28.820563880513497,-66.82207449640673,-23.7741101460723,59.564870448545086,-65.09408488627865,33.825529480767294,33.479305718931805,101.552,-1.5153614999977947,3
27.88308234120743,-65.56291661064388,-24.222454787902983,59.71364865031978,-63.599492197187466,32.74623224410088,33.04190036010621,101.556,-1.511361499997804,3
26.03939621169312,-62.4677235780409,-25.6535617952056,59.7908635719722,-60.09233682912692,30.343566431708233,32.03979598699986,101.56,-1.5073614999977991,3
24.571944743277545,-61.00567221643935,-26.586312439771824,60.474637260353994,-58.06968713810692,28.645155274052605,31.969934516633934,101.564,-1.5033614999978084,3
24.546883827512648,-63.55775854231582,-25.858825347147295,62.031469077081184,-60.175043278053266,29.286744930917507,33.726529332005065,101.568,-1.4993614999978035,3
26.020265383633504,-69.41066807364622,-23.570926104080872,63.99522291200124,-66.086593250159,32.25085453657111,36.801844595680244,101.572,-1.4953614999977987,3
27.9872740990514,-75.25136689386294,-20.968267000690645,65.47958489018693,-72.73300518911252,35.88127644669569,39.60450364773208,101.576,-1.491361499997808,3
29.117807706102703,-77.78216773157027,-19.41639038626456,65.90702864300215,-76.67349283704168,38.150241086296994,40.696973519474646,101.58,-1.487361499997803,3
28.70144250932715,-76.22484084902389,-19.377067695641973,65.49671578994177,-76.61334456488376,38.11790412081859,39.89919068946211,101.584,-1.4833614999977982,3
27.06967306792439,-72.57887160810907,-20.23892823844042,65.01891640353493,-73.94881924639601,36.40382360278743,38.27420601869875,101.588,-1.4793614999978075,3
25.210064577825356,-69.52512364908283,-21.046187809647623,65.00404999083678,-71.05259900554533,34.39235777394639,37.01743812166727,101.592,-1.4753614999978026,3
23.954655449934645,-67.9908640586901,-21.37269426743145,65.15581823508408,-69.04489444886855,32.99463385336967,36.3033452366017,101.596,-1.4713614999977978,3
23.43455896758979,-66.62270794505385,-21.538868052809995,64.5776763175316,-67.13285111662807,32.085251490649625,35.196940338720914,101.6,-1.467361499997807,3
23.187684326189412,-63.5169664836876,-22.077548672167357,62.65706738860463,-63.94919446641447,30.98615140074133,32.712806506734026,101.604,-1.4633614999978022,3
22.694154404447353,-58.36150991257983,-23.09787981608411,59.78279780673646,-59.33202831870671,29.34403803868056,28.970427797506293,101.608,-1.4593614999977973,3
21.777575603184268,-52.808642283770645,-24.23262365569184,57.177545827524774,-54.64513711928191,27.453096458511755,25.2781851695236,101.612,-1.4553614999978066,3
20.546196000819215,-48.76202912652526,-25.17317267172388,55.95146104796648,-51.35813523646686,25.764918543785733,23.03076144214457,101.616,-1.4513614999978017,3
19.07635323395238,-46.436056195807986,-26.13422026546123,56.23872899332541,-49.487159308032744,24.24314936058767,22.499204181436493,101.62,-1.4473614999977968,3
17.294757747189923,-44.285771210587704,-27.66571336511302,57.212672467290844,-47.65265666081239,22.376880826009558,22.719830196022812,101.624,-1.4433614999978062,3
15.232149440668382,-40.91852042333129,-29.974906016761768,57.93057305375874,-44.750338602069824,19.893675566186307,22.58736698154948,101.628,-1.4393614999978013,3
13.322328273721501,-36.92909123596179,-32.524288017864336,58.16453806570058,-41.41383718318546,17.35510914317847,22.025240954411053,101.632,-1.4353614999977964,3
12.282564496443507,-34.56829770527686,-34.43502925290264,58.4231123587291,-39.56137216002914,15.848515530063825,22.01050673297224,101.636,-1.4313614999978057,3
12.535434665133208,-35.40472905695609,-35.35004397017132,59.210663180950775,-40.34272830660974,15.944802849835177,23.406600637818027,101.64,-1.4273614999978008,3
13.69504649874834,-38.376557286717436,-35.834235283339595,60.34996005299246,-42.63338787414242,16.97640923367175,25.82276465878694,101.644,-1.423361499997796,3
14.712897765413938,-40.439376664859076,-36.79709738660964,61.10760114608715,-43.83948484958604,17.500357183857655,27.755102805696048,101.648,-1.4193614999978053,3
14.70145632819984,-39.43125890387914,-38.45828167840108,60.9967519372371,-42.43281772733745,16.644576738597994,27.979573305582758,101.652,-1.4153614999978004,3
13.756935993604694,-36.381630444105724,-39.94749990195408,60.384564153162465,-39.71145918407146,15.060276938326298,26.838812445037842,101.656,-1.4113614999977955,3
13.000084268868134,-34.82346379714643,-40.056158803589966,60.19640031407811,-38.85935663873214,14.474819789122527,26.06767486739981,101.66,-1.4073614999978048,3
13.708594878166704,-37.547354773160016,-38.4594746524465,60.94458143079273,-42.00962396110127,16.166043467187638,27.19723361056073,101.664,-1.4033614999978,3
16.23922932253171,-43.82992319765488,-36.15540432362469,62.06162434997203,-48.080158019055304,19.756679717779065,30.007952150052077,101.668,-1.399361499997795,3
19.65205424259063,-49.830113212325735,-34.59332166350313,62.286877078066176,-53.5078277051662,23.456570776868034,32.53576048347025,101.672,-1.3953614999978043,3
22.345990621851584,-51.83686875032722,-34.31115857253858,60.828610393246805,-55.23263870212081,25.50755987918219,32.69850513070603,101.676,-1.3913614999977995,3
23.157574714346275,-49.3277902943296,-34.47045300265383,58.21361609430858,-53.12650997291612,25.471419666417287,30.082142794827423,101.68,-1.3873614999977946,3
22.04021660593811,-45.043386005088706,-33.81728098231261,55.97244212749357,-49.66406222670007,24.234818514153954,26.27725196651573,101.684,-1.383361499997804,3
19.878906365690693,-42.20537524076235,-32.12875413573139,55.39351360418934,-47.35382725438642,22.90425042288105,23.511286238119084,101.688,-1.379361499997799,3
17.73839465668752,-41.68057655797581,-30.639691302222108,56.46936432078778,-46.54437570969468,21.793030807054325,22.863853785362977,101.692,-1.3753614999978083,3
16.21252844729346,-41.7273394930774,-30.917018642416505,57.98701031542415,-45.65120305379706,20.461928954537502,23.63409347203588,101.696,-1.3713614999978034,3
15.295563856739294,-40.2730665528227,-33.220623285789706,58.64577252170031,-43.310453818582474,18.598898303426374,24.263908975328935,101.7,-1.3673614999977985,3
14.67784940318346,-37.23569958417486,-35.971007654272405,58.1470922825039,-40.08445467179038,16.672722997409412,23.793497227140918,101.704,-1.3633614999978079,3
14.08755227653752,-34.58261637424164,-36.920822737438336,57.27773663658946,-37.96455576665189,15.619716079036255,22.482989886168674,101.708,-1.359361499997803,3
13.427531561667676,-34.25275592014679,-34.99560890710383,56.995477893989225,-38.28037094194238,15.911729111122833,21.193997202413268,101.712,-1.355361499997798,3
12.742672660480066,-36.192054790965166,-31.132152029453383,57.45745999669267,-40.258796205032446,17.029701903618523,20.35316846465976,101.716,-1.3513614999978074,3
12.171938872823224,-38.49046472839987,-27.401490046610405,57.927358166757266,-41.759823715474724,17.938352997530952,19.614128453373596,101.72,-1.3473614999978025,3
11.932480395297441,-39.38321553954608,-25.288841082310164,57.60179285380757,-41.458992001011175,18.105003642527723,18.4917717312347,101.724,-1.3433614999977976,3
12.253734252848727,-39.01688542057786,-24.689833945971145,56.49916421264607,-40.26195246946976,18.029957416182047,17.18581595434194,101.728,-1.339361499997807,3
13.211537605464637,-39.193461721489534,-24.398470011579537,55.513719853608876,-40.48039249710044,18.7307776790632,16.616289092032805,101.732,-1.335361499997802,3
14.56267766691229,-41.362768328046535,-23.46319019578351,55.56792617047935,-43.48760434330567,20.649368285643856,17.533590744100238,101.736,-1.3313614999977972,3
15.755081008863138,-44.851144738780015,-22.111247557601047,56.6813704695162,-48.0611592512842,23.014224752719333,19.57287531656659,101.74,-1.3273614999978065,3
16.17790116206543,-47.071620311782056,-21.498727791086356,57.865952595166085,-51.018551939780444,24.274898741243277,21.270147544174076,101.744,-1.3233614999978016,3
15.511393182873077,-45.58510306847839,-22.65472881610689,57.974476693107285,-49.67390437312449,23.261034184813127,21.166832196916296,101.748,-1.3193614999977967,3
13.929872413164277,-40.183164844133294,-25.595040116952138,56.72141903238475,-44.01869581787451,20.09781177240619,19.047797561004742,101.752,-1.315361499997806,3
12.00272978728604,-33.1648921306272,-29.271863887603566,54.922651736292,-36.78131548308416,16.144449091963107,16.14824088577378,101.756,-1.3113614999978012,3
10.356046548247384,-27.594163298196914,-32.26392456973145,53.731629691923345,-31.35681568644504,13.045286361019249,14.08194095318343,101.76,-1.3073614999977963,3
9.33115429524317,-25.0637831966154,-33.610669020974754,53.597950095087015,-29.382619526016118,11.672260093436453,13.455707259839663,101.764,-1.3033614999978056,3
8.87631368976322,-24.856165582987288,-33.24389848222982,53.94230599328367,-29.956982624012195,11.759364964327347,13.479062041855085,101.768,-1.2993614999978007,3
8.730684729916888,-25.116266279191098,-31.846127191277986,53.86009125096474,-31.018184198213472,12.424952261910839,12.964849425890096,101.772,-1.2953614999977958,3
8.73112761327046,-24.870853861298336,-30.3221804104925,53.16190045394863,-31.51649579222621,13.059720926044564,11.756781070753396,101.776,-1.2913614999978051,3
8.968631608140543,-24.982681187840473,-29.248939624231532,52.69111664830886,-32.342183623536755,13.79319941129787,11.120856767861516,101.78,-1.2873614999978003,3
9.645781242280632,-27.095027846758875,-28.652964843597278,53.51751576724389,-35.12596430265295,15.145863409638327,12.56479657384626,101.784,-1.2833614999977954,3
10.763492190192572,-31.51014043542064,-28.251328184534398,55.711680051683835,-40.03856525141713,17.216610924492542,16.10825070500324,101.788,-1.2793614999978047,3
11.95810922883148,-36.08598277376529,-27.93576368749694,57.908171363680665,-44.791157291942206,19.223124771455335,19.723498389236973,101.792,-1.2753614999977998,3
12.710155910959688,-37.487756465744525,-28.030559116588673,58.225732964023415,-46.08987073665373,19.95201441406616,20.720283029937676,101.796,-1.271361499997795,3
12.795692055753175,-33.989990561273984,-29.00815675249202,55.85646682080639,-42.51966296139069,18.836327083983587,18.029324314613554,101.8,-1.2673614999978042,3
12.564640123859856,-27.37707142153457,-30.87905283872515,51.92321759933462,-36.267127107565706,16.687389293610703,13.348004351020263,101.804,-1.2633614999977993,3
12.722290640371845,-21.99547747947719,-32.89926360108447,48.75712199764355,-31.84413246523235,15.274649054804403,9.98481185297421,101.808,-1.2593614999977945,3
13.735454423250948,-21.45345670746102,-34.03820859125141,48.12679573700539,-32.59347819389787,15.946237992336822,10.276655340017143,101.812,-1.2553614999978038,3
15.377906692462403,-25.70427408105182,-33.895041888283274,49.90892233077664,-37.914235390635696,18.443141385052535,13.783580951679207,101.816,-1.2513614999977989,3
16.85460679449851,-31.099717959600234,-33.18410959915893,52.320346672046085,-43.70514489722483,21.01250337830904,17.801515611130384,101.82,-1.2473614999978082,3
17.420197536464265,-33.402209643241456,-33.215332216057305,53.447956705273675,-45.695510403564114,21.792164241862373,19.652733779262572,101.824,-1.2433614999978033,3
16.928175212481854,-31.045458711481132,-34.783259373801826,52.68790070801474,-42.686949155275094,20.238721917782197,18.66086940227927,101.828,-1.2393614999977984,3
15.808747106924791,-25.748902840209173,-37.54622600290393,50.8777286933907,-36.839035217454374,17.302133173009963,16.14555508724203,101.832,-1.2353614999978078,3
14.544948020706403,-20.18402019423133,-40.535920811017604,49.18171832103846,-30.990338675945726,14.259591401227183,13.72402193822261,101.836,-1.2313614999978029,3
13.227121366981109,-15.256313827368045,-43.24994407774071,47.93222405045831,-25.86849058823051,11.453715682650666,11.761687393249206,101.84,-1.227361499997798,3
11.673122063278234,-9.831805542578714,-46.09793704079327,46.55566910637453,-20.051813201582227,8.270212376375538,9.482552238925924,101.844,-1.2233614999978073,3
9.975134746010143,-3.086709695647081,-49.62119891669738,44.543580386512765,-12.631007589270276,4.37961636621479,6.440584702877048,101.848,-1.2193614999978024,3
8.82226327260332,3.222314494633679,-53.29679542477132,42.3572104065302,-5.596862353308251,0.8594708313583679,3.632398772954017,101.852,-1.2153614999977975,3
9.119461039992862,5.358313534160089,-55.37204273330449,41.244800518019645,-3.0810474778776555,-0.2001676403734474,2.930682759383001,101.856,-1.2113614999978068,3
11.15059589210359,0.9337432137285677,-54.23470978071033,42.08965902691423,-7.737082445213281,2.4981504367671534,5.299643656410096,101.86,-1.207361499997802,3
14.083168227695786,-8.19219489638242,-50.15872441096461,44.43114152846124,-17.64569054577739,7.901385826381928,9.580914270585467,101.864,-1.203361499997797,3
16.384216914124803,-16.549123681385474,-45.62598369537266,46.67365504706546,-26.966481855466164,12.932047291187311,13.151669979846735,101.868,-1.1993614999978064,3
16.881792074191658,-19.051379306231382,-43.63120858590822,47.34763454516044,-30.128371302129878,14.640848018031958,13.940684556885438,101.872,-1.1953614999978015,3
15.569055176390451,-14.86480043621809,-45.34452159425354,46.25959729216471,-25.94499173986194,12.366150066706572,11.959511235071838,101.876,-1.1913614999977966,3
13.451861559436868,-7.630488701720654,-49.25498075387059,44.478660094907376,-18.017440270343236,7.99714546186748,8.975242609722752,101.88,-1.187361499997806,3
11.61325995212332,-1.9237123081500636,-52.600180025128964,43.231475396649365,-11.222126557252816,4.168211478758794,6.73307206300039,101.884,-1.183361499997801,3
10.376625870398302,0.6431827665353416,-53.7337874633248,42.8025138785101,-7.66720916303905,2.1051668130812775,5.473507297838849,101.888,-1.1793614999977962,3
9.31494120547435,2.042118009719808,-53.22050865252367,42.47452293432683,-5.799346296061994,1.078280966358396,4.109991832706292,101.892,-1.1753614999978055,3
8.015954404654643,4.825560143862965,-52.74589485647914,41.491969846479414,-3.1478511035232075,-0.2082327422788294,1.7684943072841763,101.896,-1.1713614999978006,3
6.785088323433565,8.699713701265901,-53.09245090303055,40.03752331246698,0.3228550070467843,-1.8375915178717177,-0.9151379233109475,101.9,-1.1673614999977957,3
6.5436174832841,10.233658518169078,-53.29858656733038,39.22900991304088,1.7265772687746355,-2.368028373685594,-2.066248242252692,101.904,-1.163361499997805,3
7.973199154553567,6.119650046561231,-51.835285370244456,40.11727428737503,-1.8474977312094452,-0.32160463823503205,-0.20573574880087434,101.908,-1.1593614999978001,3
10.706395895436474,-3.1519914003182,-48.527280681515634,42.63373188960214,-9.938923167172588,4.020327525534855,4.257739938432974,101.912,-1.1553614999977952,3
13.362463349120405,-12.862895186311679,-45.151515810118006,45.48805086729446,-18.26491418628694,8.364062721361005,9.064748244940779,101.916,-1.1513614999978046,3
14.484337730396607,-17.553580553740243,-43.965043683571665,47.13809022711264,-21.892823052688907,10.09438425160048,11.694635080891105,101.92,-1.1473614999977997,3
13.629013528867333,-15.451020307245745,-45.51876721878223,46.98962296080591,-19.30477443436309,8.46100771798004,11.194917752737798,101.924,-1.1433614999977948,3
11.713635111461956,-9.949188071901137,-47.89995989075228,45.80470144619183,-13.756503601714606,5.30563872000718,8.781676286707084,101.928,-1.1393614999978041,3
10.335003438939713,-6.85216665854825,-48.23448996342438,45.01566186668246,-10.726935130405444,3.654794145265219,6.808132301490703,101.932,-1.1353614999977992,3
10.608753100670203,-9.75316892223004,-45.151045152829056,45.56970849858886,-13.634834639684241,5.360069669798569,7.000517445685713,101.936,-1.1313614999977943,3
12.42035269513935,-17.382028513708942,-40.009037473842774,47.25747885324772,-21.34338722986104,9.72958616263216,9.327035506393539,101.94,-1.1273614999978037,3
14.601134037592152,-24.885853788692312,-35.83347424515733,48.991463954719,-29.27092259317374,14.16666767886668,12.230984955845562,101.944,-1.1233614999977988,3
15.807773457350974,-27.668206922427196,-34.946218725192765,49.69327060733529,-32.892018962407704,16.142202490219173,13.863198055122238,101.948,-1.119361499997808,3
15.404574520361603,-24.55050739052478,-37.32435682826857,49.025752226040304,-30.720998058439935,14.870238753948016,13.295296776883372,101.952,-1.1153614999978032,3
13.753897432004758,-18.00830794313312,-40.9046334214095,47.4570555613688,-24.726982532528176,11.528908720737663,10.900062182959584,101.956,-1.1113614999977983,3
11.834771997243271,-11.864593859308094,-43.29840908955461,45.75829441999198,-18.4319541046383,8.164966815371228,7.836923820894524,101.96,-1.1073614999978076,3
10.573079083813287,-8.669040713040992,-43.34187336790248,44.45052317705887,-14.562831467340096,6.340814245176335,5.209329042235082,101.964,-1.1033614999978028,3
10.353780337090832,-8.683534529751041,-41.37905624168728,43.62655450849289,-13.914132798684397,6.469312946464437,3.5270757780745674,101.968,-1.0993614999977979,3
10.93688810495521,-10.63647958574744,-38.47486581563629,43.15366625475699,-15.668890534933203,7.989440231286705,2.700241345318032,101.972,-1.0953614999978072,3
11.698200902921156,-13.017696332700721,-35.560006170418895,42.9415179058321,-18.326349716847634,9.91304123078525,2.351292180428747,101.976,-1.0913614999978023,3
11.988710496623291,-14.762122661456191,-33.20043908256517,42.9990237632932,-20.41702441691584,11.28123811667404,2.11061378434666,101.98,-1.0873614999977974,3
11.447463484021632,-15.22431282075219,-31.822730867778358,43.29336417278205,-20.881935525313775,11.443138961971039,1.7450125950695998,101.984,-1.0833614999978067,3
10.169334245392589,-14.071065786463853,-31.80748202109347,43.63670125468367,-19.369558799820805,10.263224527661206,1.1788465796406593,101.988,-1.0793614999978018,3
8.652134357711988,-11.45033759442131,-33.2343425403082,43.761107486183555,-16.426013399219002,8.208319972971184,0.4891317170817655,101.992,-1.075361499997797,3
7.498788016649672,-8.09676530430081,-35.65291156597418,43.50754332271037,-13.20945030024813,6.1042389814072235,-0.15144315024412727,101.996,-1.0713614999978063,3
7.001224045420086,-4.907185930587163,-38.309769221501824,42.923707837141095,-10.624926514530655,4.549833972974356,-0.6328841889158897,102.0,-1.0673614999978014,3
6.891162848134752,-2.1772648191109876,-40.716416426184885,42.17522505647504,-8.492868862300549,3.4018899241475142,-1.0817277211608851,102.004,-1.0633614999977965,3
6.504826906117156,0.6945866114811572,-42.9660242716734,41.38722446716129,-5.640701376279747,1.8678533274526292,-1.8477656642590847,102.008,-1.0593614999978058,3
5.303819046078338,4.536096437841324,-45.411512392096476,40.60083864725553,-1.0781653077680597,-0.7343912726102614,-3.2166851587003777,102.012,-1.055361499997801,3
3.3483063713250862,9.31081581299196,-48.02839745877923,39.875795911512746,4.741348953887432,-4.188487501729203,-5.059382089208752,102.016,-1.051361499997796,3
1.2878099633052877,13.790118806637123,-50.2032399466683,39.37911729599672,9.90212688782906,-7.369499606409642,-6.786433400690233,102.02,-1.0473614999978054,3
-0.16946362717229102,16.529118640974136,-51.28082642217686,39.30400941826,12.512987002660964,-9.148098368003067,-7.747726644542853,102.024,-1.0433614999978005,3
-0.8494779144356991,17.29263816430669,-51.34767651125945,39.671602228754914,12.413096903862417,-9.41508045585884,-7.76510241536999,102.028,-1.0393614999977956,3
-1.2039499800404896,17.417743903995266,-51.36057096976731,40.2409316198263,11.39068917674644,-9.203201919851123,-7.281641830909055,102.032,-1.035361499997805,3
-1.7896145530424588,18.547342889155484,-52.329324100799944,40.668361371088196,11.538691843957366,-9.69739917344798,-6.93805827691064,102.036,-1.0313614999978,3
-2.633229507265357,20.892131927707446,-54.279417018554334,40.78261184367619,13.256401355847343,-11.047914821448504,-6.970583779962755,102.04,-1.0273614999977951,3
-3.1329803791393633,22.858483926466793,-56.07846123844688,40.68227377276107,14.910711390093287,-12.186263868897086,-7.053763602837777,102.044,-1.0233614999978045,3
-2.6417200939141865,22.63023005812856,-56.443312304979486,40.52853934286581,14.62044226229558,-11.911511066866016,-6.782668197530224,102.048,-1.0193614999977996,3
-1.1821415038051357,20.245927335993894,-55.24910419395071,40.24958034697748,12.458314781140897,-10.22736867680998,-6.295208089546431,102.052,-1.0153614999977947,3
0.43467977943004876,17.997228816874017,-53.84993327630936,39.517410598702824,10.789527414300819,-8.572815146332722,-6.3160981866655925,102.056,-1.011361499997804,3
1.2565120989772336,18.49558090993917,-53.98531499854687,38.103795871400536,12.204139014646733,-8.614083804763212,-7.460629091653592,102.06,-1.0073614999977991,3
1.007231035618322,22.114992946932716,-56.202508416759585,36.29651829510452,16.9210222744315,-10.690148269471488,-9.447107865855969,102.064,-1.0033614999978084,3
0.2861275408306601,26.3167886147752,-59.24790991975205,34.91205436790021,22.208189518857104,-13.403357034662497,-11.071893087948588,102.068,-0.9993614999978035,3
-0.03629977273123603,27.660633646996196,-61.02276983382535,34.77581734280119,24.51166710960088,-14.778883714481546,-11.11016477836009,102.072,-0.9953614999977987,3
0.3908392981949311,24.70060465854747,-60.25718166500058,36.06391977245878,22.374615004185728,-13.908032566196008,-9.364764502190296,102.076,-0.991361499997808,3
1.2163066899130206,19.05478365163401,-57.408425700386815,38.09248968142963,17.44088834708101,-11.534934580118199,-6.861108089552632,102.08,-0.9873614999978031,3
1.9626389456843019,13.683627104805627,-54.04414011266457,39.78225388386337,12.676454065953923,-9.099915285928072,-4.96091860171456,102.084,-0.9833614999977982,3
2.7020420515033123,10.111095133421651,-51.38257466428743,40.435135892049125,9.601779638328736,-7.263249663960498,-4.204228387054867,102.088,-0.9793614999978075,3
4.053026144429039,7.292109534776372,-49.37974427347426,40.188897905360975,7.19437985094268,-5.395820134296135,-3.9528490277386465,102.092,-0.9753614999978026,3
6.437276799096202,3.123780701309363,-47.13549962654758,39.811696421819974,3.386097772136736,-2.49752011169207,-3.125831956122604,102.096,-0.9713614999977978,3
9.361918092741375,-3.043436384022827,-44.093166566669005,40.068669162693894,-2.4805332790617785,1.4549978109133517,-1.268448836595008,102.1,-0.9673614999978071,3
11.548114358669377,-9.466977214188391,-40.794893399110784,41.20813497056666,-8.722718874702808,5.152547707466601,1.0757924512993586,102.104,-0.9633614999978022,3
11.90975057379222,-13.559023748882844,-38.46262054913106,42.92555555778196,-12.781955812064387,6.99555436821113,2.972739610292985,102.108,-0.9593614999977973,3
10.502735340840722,-14.321588581254101,-37.843878528303996,44.70713405044483,-13.564912298972999,6.531206658238119,3.989303359007439,102.112,-0.9553614999978066,3
8.525627358265739,-13.241822013507191,-38.44632763009155,46.179736643369615,-12.366167526633392,4.891461932205365,4.457491236391436,102.116,-0.9513614999978017,3
7.332203495685373,-12.830809401246562,-38.87509350239294,47.20783107261356,-11.579254041260983,3.824486044024375,4.920636332577191,102.12,-0.9473614999977968,3
7.360778079982937,-14.337236061060416,-37.941197717474246,47.78878334088371,-12.575448906576696,4.2637413559746555,5.440579908270075,102.124,-0.9433614999978062,3
7.957996767644949,-16.886546295441548,-35.54093787554712,47.96330685011313,-14.8092022825781,5.762937206101873,5.55244562970683,102.128,-0.9393614999978013,3
8.20189695138091,-18.75261527872298,-32.59296341539009,47.848157191381055,-16.836560736702474,7.215901131734655,4.916184156318935,102.132,-0.9353614999977964,3
7.8728852248314425,-19.313130031918856,-30.210153500579118,47.69118448603765,-18.00471026849001,8.03187644793358,3.9320476421853447,102.136,-0.9313614999978057,3
7.618430216082132,-19.65065636535459,-28.910557528405096,47.79808706382531,-19.027748684745664,8.58126651622733,3.5911787823706107,102.14,-0.9273614999978008,3
8.188980814778393,-21.24851676445083,-28.50331651947873,48.33518441113254,-20.947573886639784,9.553544248336593,4.6216976963218475,102.144,-0.9233614999977959,3
9.549225070787115,-24.20728543406617,-28.576446440154516,49.1847300683978,-23.689490087042536,10.99220881265775,6.747058009420565,102.148,-0.9193614999978053,3
10.777118123231814,-26.869274822826004,-28.98509919292411,50.014754774490356,-25.81408406424088,12.062933125316295,8.813652056952524,102.152,-0.9153614999978004,3
10.866501448324199,-27.273908133911682,-29.859516385326945,50.52695355369501,-25.79549670451887,11.8191661569971,9.716300064741185,102.156,-0.9113614999977955,3
9.651157299954637,-25.000026453962846,-31.224890921515243,50.66637223738207,-23.552984993322365,10.185635285075954,9.2747375463878,102.16,-0.9073614999978048,3
7.950688905826558,-21.55655655423997,-32.73791991258581,50.60339402932647,-20.65219023370563,8.136622891798371,8.255960873580017,102.164,-0.9033614999977999,3
6.799898146491078,-18.927456559740385,-33.89031640002487,50.51367807407797,-18.886527146300825,6.837786838807377,7.552937046689658,102.168,-0.899361499997795,3
6.506372571342015,-17.706027205154577,-34.49211865102315,50.378397928523924,-18.571074616994,6.558862443458533,7.325587529847275,102.172,-0.8953614999978043,3
6.432766702244239,-16.662537457750172,-34.898740888255865,50.011446177339856,-18.232884673978692,6.425783692319266,6.92416644808139,102.176,-0.8913614999977995,3
5.694668631400594,-14.183607186554063,-35.667695133304214,49.29816944307364,-16.087798826584354,5.298250837176956,5.648012234791475,102.18,-0.8873614999977946,3
4.096455317852153,-10.175432057989779,-36.92643347295586,48.408784816493664,-11.964796091225516,2.973478728617292,3.587942759208069,102.184,-0.8833614999978039,3
2.4191650365323927,-6.529666527278051,-38.10012967771289,47.74822471218243,-7.826873167198732,0.5661125736823259,1.7231670497925673,102.188,-0.879361499997799,3
1.7962436936988815,-5.601423938873849,-38.36935107258801,47.64537504552748,-6.276963249422892,-0.3510448954141588,1.1571644170725894,102.192,-0.8753614999978083,3
2.754378507262219,-8.06740601369933,-37.510343945534494,48.05494189502676,-8.318579382352702,0.890396264489909,2.196612674807654,102.196,-0.8713614999978034,3
4.775738970933317,-12.188474612950353,-36.300798245283445,48.576464812565014,-12.411893249238506,3.422825252695755,4.1261370712782455,102.2,-0.8673614999977985,3
6.73377778846255,-15.2426526814627,-35.97218300613523,48.82079595744948,-15.756370754620121,5.54385677944749,5.872775916858546,102.204,-0.8633614999978079,3
7.773444654783594,-15.875391000330453,-37.06670854519237,48.80589196079986,-16.70751283840703,6.15232191901707,6.917953849329349,102.208,-0.859361499997803,3
7.8665601400989456,-15.225217717834882,-38.71746765180274,48.9841378802594,-16.156237274861777,5.648092969741667,7.600131654399412,102.212,-0.8553614999977981,3
7.635086708862996,-15.78173428484251,-39.12983380802001,49.81752584013945,-16.604526677472894,5.500496730737569,8.56298549059541,102.216,-0.8513614999978074,3
7.706981207955906,-19.01985821844777,-37.01492988663098,51.266134616665354,-19.77286378236657,6.886469500774957,9.948066562049116,102.22,-0.8473614999978025,3
8.22367028460817,-23.988764857746784,-32.80177350141574,52.699835797403445,-24.93862013989103,9.627528708823382,11.17812370821857,102.224,-0.8433614999977976,3
8.883568002443983,-28.15038925415871,-28.518527733960315,53.38850946990467,-29.540058154344162,12.364533579876817,11.572364090237738,102.228,-0.839361499997807,3
9.371330109472009,-29.68001065814074,-26.318401002249967,53.16335026097523,-31.482003530374453,13.77888678358679,11.166848036731155,102.232,-0.8353614999978021,3
9.706704718458589,-29.102805124240824,-26.81527611875702,52.61813279884508,-31.002917518021302,13.738946386522157,10.857214857193316,102.236,-0.8313614999977972,3
10.198437016938342,-28.781572080751065,-28.617558252857965,52.60502333663478,-30.38861945173429,13.356443496323466,11.627845935446748,102.24,-0.8273614999978065,3
11.097960641157263,-30.76298580888366,-29.46689547874788,53.45244526608421,-31.834031490470515,13.947448455426974,13.56605841543362,102.244,-0.8233614999978016,3
12.305876594788776,-34.956019980489955,-28.041350589903477,54.64047041299656,-35.447505511163406,15.857777226537038,15.640751847234474,102.248,-0.8193614999977967,3
13.388505127708255,-39.22772507704944,-24.945665277079097,55.26939146113492,-39.1865438849024,18.172592024340414,16.529445625847366,102.252,-0.815361499997806,3
13.863613372659858,-41.2094893892946,-22.13522862198297,54.89893800808473,-40.67205042558802,19.493568683057788,15.760648373063235,102.256,-0.8113614999978012,3
13.512871899521164,-40.13985861123217,-21.33917183130127,53.95918878546458,-39.15109082252031,19.048909388568784,14.109151191499215,102.26,-0.8073614999977963,3
12.515190529323947,-37.23277023077103,-22.80674184985732,53.33682206989795,-35.91560669376313,17.21446109732507,12.888645077844515,102.264,-0.8033614999978056,3
11.364106407418706,-34.53230963511357,-25.302539445349044,53.54739456733749,-33.05799116240585,15.138987711201578,12.842351556910698,102.268,-0.7993614999978007,3
10.651252750996214,-33.48876309158894,-27.169762186788446,54.31311555343977,-31.923490852991872,13.929692321944712,13.687955504988581,102.272,-0.7953614999977958,3
10.809359439066101,-34.42513538980072,-27.47864801271369,54.95203561295525,-32.614527441986205,14.079541881669101,14.677373910810173,102.276,-0.7913614999978051,3
11.89198920246806,-36.94943932338558,-26.406238363849063,55.15418110022619,-34.614909090276996,15.425545647588484,15.498870827228945,102.28,-0.7873614999978003,3
13.487731517812984,-40.482120929247415,-24.785824388819123,55.318271627753795,-37.49333979927361,17.419452155450152,16.53582981632323,102.284,-0.7833614999977954,3
14.869804155019432,-44.27349730887444,-23.416902622651648,56.07407647112385,-40.842200241677084,19.3705781006594,18.21814144640048,102.288,-0.7793614999978047,3
15.37595711031452,-47.18292030409468,-22.70625799219672,57.473816491706685,-43.751557605656664,20.58707221862935,20.20389008129751,102.292,-0.7753614999977998,3
14.825897316104578,-47.951173351582455,-22.704341123301706,58.72122099952567,-44.833470982028075,20.581856532331333,21.36001060895068,102.296,-0.7713614999977949,3
13.684448525272595,-46.143544224938964,-23.21919493889618,58.80144557800495,-43.236363340236935,19.404051034020846,20.709157366773695,102.3,-0.7673614999978042,3
12.811149907611147,-42.978214661111245,-23.79681822997526,57.462924695069624,-39.82164025650217,17.843427423914825,18.479171120993087,102.304,-0.7633614999977993,3
12.935965750932022,-41.00868337946212,-23.725476387792916,55.59557248791757,-37.14209982212468,17.158561260013986,16.18616009051616,102.308,-0.7593614999977945,3
14.219099206364247,-42.519980133029,-22.341521423511022,54.57590947033358,-37.789660293244026,18.314876593499832,15.54127657958639,102.312,-0.7553614999978038,3
16.191402352002232,-47.749758174349296,-19.585911157448116,55.11916340273199,-42.27280833637438,21.21931164124131,17.078600272196272,102.316,-0.7513614999977989,3
18.07974406280127,-54.42831889579801,-16.335819096350647,56.66282079203193,-48.271457880332264,24.59547785770902,19.697553159938717,102.32,-0.7473614999978082,3
19.253216985537474,-59.181271164979684,-14.046031780411358,57.84223135811716,-52.11511290668758,26.723176434545373,21.523791073878584,102.324,-0.7433614999978033,3
19.49529267802654,-59.82748874686931,-13.794601078795527,57.64399274349244,-51.452724236952406,26.575216709721985,21.36031193137627,102.328,-0.7393614999977984,3
18.99503609893681,-56.83832488037595,-15.44659500614976,56.23678525035205,-47.00344997097477,24.51512713795735,19.541421370254273,102.332,-0.7353614999978078,3
18.155651669735207,-52.86195462862235,-17.68629531364183,54.79187098769181,-41.97916244989585,22.01608517966903,17.563804555063967,102.336,-0.7313614999978029,3
17.37678222910615,-50.720716410121824,-18.986645771754844,54.494559810890095,-39.6551980190008,20.604723644376712,16.886494516504488,102.34,-0.727361499997798,3
16.896763534395735,-51.43133910985163,-18.756210623077912,55.60751962854551,-41.025835113372075,20.823730440380718,17.885371242979648,102.344,-0.7233614999978073,3
16.713976316542666,-53.70350073264983,-17.70232805766865,57.33625311712607,-44.325736017898244,21.972935141978933,19.708400232569062,102.348,-0.7193614999978024,3
16.60982870432963,-55.18487218215034,-17.107387299871405,58.531443269966005,-46.64203658203906,22.772139738396366,21.020884351368824,102.352,-0.7153614999977975,3
16.303968551688516,-54.40469748796181,-17.664894567097893,58.592395709914356,-46.22220767890198,22.392209854378336,21.003225617980494,102.356,-0.7113614999978068,3
15.697964479365426,-51.910578174711205,-18.900573586168083,57.84504031385025,-43.67628554855504,21.062665296426207,19.88176721979248,102.36,-0.707361499997802,3
15.042287810885435,-49.77637887306993,-19.662012811094485,57.15749393578015,-41.276287542183375,19.83444633625181,18.68045114343041,102.364,-0.7033614999977971,3
14.840878218028811,-49.91507605895672,-19.19816132945099,57.17244050002038,-41.055917216216635,19.730645983875217,18.425189902699934,102.368,-0.6993614999978064,3
15.479195226781314,-52.510636196438604,-17.847122948984342,57.791565499015526,-43.22753432580284,20.94638500949583,19.368147735933135,102.372,-0.6953614999978015,3
16.820960733653305,-55.76134278796184,-16.74258420037263,58.2945931045071,-46.04769028915609,22.67294634723265,20.76311709209754,102.376,-0.6913614999977966,3
18.1273029301041,-57.131375017075534,-16.8384632450397,57.959632128825604,-47.11742736725957,23.64120243643874,21.35912813400638,102.38,-0.6873614999978059,3
18.460805526286872,-55.1963246803036,-18.11519146259705,56.679307634211,-45.11493018552314,22.987600401537474,20.298732766388447,102.384,-0.683361499997801,3
17.3544557770121,-50.752441398652685,-19.603856751838222,55.099027283977954,-40.772924679100264,20.86780118235074,17.807938586250373,102.388,-0.6793614999977962,3
15.25614148219367,-46.40662638597333,-20.131418091667307,54.18708039036908,-36.512883876797424,18.43617913665509,15.171527345220214,102.392,-0.6753614999978055,3
13.354130190244817,-44.934713605526674,-19.14480348713654,54.5763544538215,-35.0179838114632,17.198419285854033,13.968596974206076,102.396,-0.6713614999978006,3
12.822186473088365,-47.51471631229914,-17.032247240273872,56.17025787750284,-37.621111855996844,18.100089689981466,15.075541367997207,102.4,-0.6673614999977957,3
13.98652008991142,-52.9823375326898,-14.8389573655171,58.278289955397995,-43.45097006512298,20.881100199742708,18.126354718277764,102.404,-0.663361499997805,3
16.042982504759664,-58.56613295606614,-13.673723410485191,60.13342063455105,-49.8667935438166,24.13144774774764,21.798799023309588,102.408,-0.6593614999978001,3
17.599585721730865,-61.631871256569575,-14.153209333565801,61.37593702451113,-54.018206833449526,26.122078415232338,24.705686262110564,102.412,-0.6553614999977952,3
17.70537774689224,-61.353420414586566,-16.07766787725212,62.16423663034258,-54.670683986898666,25.97674466847288,26.255413233029678,102.416,-0.6513614999978046,3
16.605662544691896,-59.245173119700674,-18.440370786740576,62.897709072805505,-53.111928622657175,24.395755939948415,26.89834497165263,102.42,-0.6473614999977997,3
15.598958057872403,-58.133943796841514,-19.858959931949013,63.823512747969325,-52.347061184062106,23.288260887826812,27.629233219184083,102.424,-0.6433614999977948,3
16.02913544006498,-60.12211714698349,-19.372003798689793,64.8307139327551,-54.88565607748637,24.387796008470357,29.132131641869215,102.428,-0.6393614999978041,3
18.156392574335694,-64.86906125130957,-17.206987281077073,65.53977205756375,-60.59216858298659,27.78309098592881,31.188961497545005,102.432,-0.6353614999977992,3
20.826016339244184,-69.51352451859847,-14.903443139766672,65.5764093639881,-66.33955759132589,31.564793340288908,32.78930620616981,102.436,-0.6313614999977943,3
22.275859359743162,-70.55094877739207,-14.461773093266167,64.83811631723846,-68.06253972420848,33.066300148752866,32.89498576913223,102.44,-0.6273614999978037,3
21.496006675823143,-66.48477482201956,-16.945439389888424,63.611151482004196,-63.889979382837716,30.888865363463832,31.324170073454507,102.444,-0.6233614999977988,3
19.04265073040419,-59.22045007455537,-21.576102290306906,62.475298407033165,-55.88729271185005,26.107156457268637,29.05873948200634,102.448,-0.6193614999978081,3
16.603318180669948,-52.87605153835177,-26.15658795446447,62.00336488240183,-48.76199121868918,21.5614311495842,27.62651649884945,102.452,-0.6153614999978032,3
15.644998026552834,-50.67859712991713,-28.634278405269963,62.365989377682865,-46.29700753895015,19.68679942371465,27.912096246186906,102.456,-0.6113614999977983,3
16.27965010406697,-52.365516305397534,-28.601474404060184,63.08548307802278,-48.3429219573791,20.635260649865153,29.309518834881942,102.46,-0.6073614999978076,3
17.317916004909883,-54.37444350861841,-27.47720524693439,63.20601798580518,-50.993069693768064,22.301324798739454,30.019459659866364,102.464,-0.6033614999978028,3
17.446524134537082,-52.899078940658136,-27.184957240782044,61.91657133606563,-49.994005379149115,22.271678203916178,28.443267886070416,102.468,-0.5993614999977979,3
16.46040072924981,-47.34654355299251,-28.44461139835857,59.26051159009783,-44.59326506084871,20.023783592680385,24.639724100171783,102.472,-0.5953614999978072,3
15.427816335851197,-41.15135702413047,-30.159603890409564,56.3400187598889,-38.457812198294356,17.430515159883683,20.570422857210623,102.476,-0.5913614999978023,3
15.641833730834259,-39.02725075725467,-30.434546410325943,54.690046742744585,-36.69891730542803,17.09449005073353,18.7343439486963,102.48,-0.5873614999977974,3
17.33347057407343,-42.86391139266702,-28.32622364896063,55.15889968285236,-41.431897439599645,19.964699726404252,20.164962497897264,102.484,-0.5833614999978067,3
19.3491892518256,-49.81337125340048,-24.792968608821724,57.151074602466835,-49.68178144033236,24.343902010430725,23.443955437831416,102.488,-0.5793614999978018,3
20.105040668746383,-54.33337981183191,-22.028711736368155,58.93012153460607,-55.50890257314754,27.171504741753317,25.664327176241844,102.492,-0.575361499997797,3
18.948161867078657,-52.54042401035586,-21.78159394666324,58.865219549390375,-54.6195475556738,26.463841642492017,24.664342453731823,102.496,-0.5713614999978063,3
16.689130110931963,-45.210527975526496,-24.092755984398345,56.68723068372473,-47.620927337157305,22.81485745275784,20.732993049667613,102.5,-0.5673614999978014,3
14.852015165322628,-36.96907887290043,-27.445072027340494,53.737073217000955,-39.30967241354858,18.751401192516916,16.383333738949023,102.504,-0.5633614999977965,3
14.370215201743413,-32.5258800154837,-30.057172080465158,51.97366554761339,-34.79132308248829,16.632922722280217,14.397571706800138,102.508,-0.5593614999978058,3
14.920200337820667,-33.236159561071254,-31.15077763293821,52.5171874791546,-35.77143117754573,16.953990033974407,15.76699052060554,102.512,-0.5553614999978009,3
15.424620448435267,-36.70711511474333,-31.208467093735376,54.87222247656539,-39.90588605265147,18.37159703077993,19.153028305349608,102.516,-0.551361499997796,3
15.144008918393258,-39.3294141497746,-31.228045017059188,57.39578732404419,-43.28502678942426,19.161275897798802,22.141413816021814,102.52,-0.5473614999978054,3
14.287205226010412,-39.20416747409259,-31.798452743142597,58.56371754145435,-43.595149150568,18.648553647951697,23.09829295238675,102.524,-0.5433614999978005,3
13.629893453940886,-37.033679577527344,-32.78416800071537,58.00579944359709,-41.3707371379891,17.435227696868697,22.117664121825143,102.528,-0.5393614999977956,3
13.6295834392579,-34.72438499614327,-33.698994118859375,56.565195457994534,-38.78180004780665,16.502370032314435,20.508030233242444,102.532,-0.5353614999978049,3
13.9642943397232,-33.442401652242395,-34.24109185803368,55.47102296441159,-37.500547113209976,16.234223653248282,19.51449966610299,102.536,-0.5313614999978,3
13.913699847677815,-32.9029175039342,-34.481254840331985,55.366335117211754,-37.55600076854274,16.24150862612041,19.418629521798955,102.54,-0.5273614999977951,3
13.121738309995294,-32.11606530452217,-34.672808935493244,55.927338588126666,-37.78151768545921,15.929091008860212,19.59222401849246,102.544,-0.5233614999978045,3
11.937801539346179,-30.46189863736061,-35.001836506206764,56.25881257309163,-37.021433184541145,15.084956035086723,19.203598180583974,102.548,-0.5193614999977996,3
11.033799052253324,-28.06591786518031,-35.5024233964715,55.66275579446603,-34.96871518555606,13.955152508923298,17.885349091565253,102.552,-0.5153614999977947,3
10.759175611429733,-25.503711192447568,-36.065179147896586,54.17866286367448,-32.23270653686364,12.932091001178897,15.931667400924688,102.556,-0.511361499997804,3
10.912480482936182,-23.484260308093358,-36.40191099474863,52.5394544496917,-29.938763910871387,12.316706786094231,14.056293494991271,102.56,-0.5073614999977991,3
11.091843703997283,-22.754938610274888,-36.05633668617377,51.626875129801235,-29.197947474035423,12.325128862143355,12.965375074542239,102.564,-0.5033614999978084,3
11.146933435386241,-23.83667130590242,-34.68481626351118,51.83977820857294,-30.513590990892368,13.083517695182419,12.964849221164382,102.568,-0.49936149999780355,3
11.202671366023226,-26.378391776706525,-32.556067258850575,52.829774137148476,-33.262282785689436,14.398232080093024,13.766064237981828,102.572,-0.49536149999779866,3
11.287855215230875,-28.771909394513457,-30.774455985007677,53.802468019748986,-35.74284918330678,15.554011325782714,14.644880002065355,102.576,-0.491361499997808,3
11.10554309371706,-28.94096551195546,-30.728173381177793,54.1741939994892,-36.19524435922197,15.61392265802044,14.970723501128541,102.58,-0.4873614999978031,3
10.319732070369964,-26.150364936249836,-32.94519110817566,54.075142917090545,-34.309597463045655,14.22517880679479,14.785099713215864,102.584,-0.4833614999977982,3
9.07059763825162,-22.211268652810045,-36.329216393133834,54.25146910623783,-31.860773159046243,12.200032376002966,14.87915908449774,102.588,-0.4793614999978075,3
8.048887077602462,-20.42522520974739,-38.71747642452647,55.371494247136155,-31.44176144245165,11.06347785043935,16.100603901547558,102.592,-0.47536149999780264,3
7.873852984594363,-22.597750932133767,-38.60457177397132,57.274848033657,-33.97076820419949,11.67817719961654,18.3462126924367,102.596,-0.47136149999779775,3
8.342982873491263,-26.72351883118541,-36.6240882221907,58.848719631947,-37.201678336184536,13.158322851509732,20.19926003261269,102.6,-0.4673614999978071,3
8.425732864892492,-27.954705702890163,-35.291105939749656,58.757875780916756,-37.05341138362752,13.320517578878835,19.7950968015793,102.604,-0.4633614999978022,3
7.204141760604733,-22.64610786118546,-36.935671574705246,56.51392354760879,-31.112874081710054,10.583356872950622,16.393231336436624,102.608,-0.4593614999977973,3
4.927442942272041,-12.077777651353044,-41.51233633393082,52.9949708038354,-21.323925249080986,5.6905994960997415,11.301025992157713,102.612,-0.4553614999978066,3
3.0574257558189593,-2.1920416397631945,-46.3236253111941,49.91795100249574,-13.129743946346519,1.5086416653348886,7.161392473654254,102.616,-0.45136149999780173,3
3.070955421483505,0.9321269300703855,-48.10120012759516,48.64022485626584,-11.363300915235623,0.8012030377017106,6.019990797309383,102.62,-0.44736149999779684,3
5.054812862697895,-3.9176276593429686,-45.70626043952368,49.2564103022622,-16.314323777450685,3.8581714607461395,7.768817250611131,102.624,-0.44336149999780616,3
7.4740623518444655,-12.136225103885094,-41.02902168331711,50.70629795670574,-23.535653348231,8.183737485051532,10.336802341831504,102.628,-0.4393614999978013,3
8.458686376527991,-17.359986377140817,-37.258725119547776,51.72817523920705,-27.67975146267064,10.641093182164685,11.470508161459545,102.632,-0.4353614999977964,3
7.475649545913236,-16.84700499803668,-36.13601504824866,51.78429755731078,-26.92929970925856,10.135565545531556,10.516807106788352,102.636,-0.4313614999978057,3
5.802957422883054,-13.255631107447293,-36.7496238590483,51.19677358403363,-23.997847954171238,8.349001624721605,8.65437028902857,102.64,-0.4273614999978008,3
5.313352876084806,-11.356005876533436,-36.933593108055014,50.526343007917305,-22.909611498452918,7.856710041757706,7.502804557281567,102.644,-0.42336149999779593,3
6.692329240849007,-13.050722977885055,-35.78887813393853,49.91987279057455,-24.77604839422503,9.463204467062264,7.5402430075628,102.648,-0.41936149999780525,3
8.77718016599728,-15.588643716008566,-34.77260864433655,49.08635028372003,-26.688126253524278,11.346622591608684,7.839225572543417,102.652,-0.41536149999780037,3
9.637883636718449,-14.582886153181093,-36.24903041203163,47.84592247919007,-24.74333982270468,10.838441110228036,7.253009161780851,102.656,-0.4113614999977955,3
8.356027907474187,-8.672041028076848,-40.950750675150374,46.5841994702986,-18.159449057774665,7.093098989306695,5.748914393922417,102.66,-0.4073614999978048,3
5.817861821967114,-1.1291341107253323,-46.913579943445285,46.058542701539075,-10.388245769294638,2.0429976520542326,4.51155764790485,102.664,-0.4033614999977999,3
3.829093750147506,3.120096094338511,-51.00250905028501,46.70995816665186,-6.132598398808191,-1.2742124192093474,4.750171857164696,102.668,-0.399361499997795,3
3.479533457426025,2.0102557207164398,-51.58000280248249,48.186202173200925,-7.196670722122495,-1.3707519846781924,6.4714341579398145,102.672,-0.39536149999780434,3
4.339039901177273,-2.0874882315510614,-49.74596663945455,49.5924564088305,-11.168949705061982,0.5984438055486135,8.472464460511231,102.676,-0.39136149999779946,3
5.155535977410337,-5.08679206557577,-48.01377979452395,50.23954902608831,-14.042318583024116,2.239046345329967,9.508759094295245,102.68,-0.38736149999779457,3
5.2176944428026335,-5.203163573813044,-47.82202836509519,50.13090410866113,-13.975668286120927,2.2827585724378903,9.369503101127524,102.684,-0.3833614999978039,3
4.959150867886711,-4.109171970348877,-48.37075330052539,49.68704086981671,-12.418105755787177,1.5272330904244908,8.724606198533573,102.688,-0.379361499997799,3
5.255584599340429,-4.2234880648181905,-47.85199665963275,49.0124283807076,-11.675371583235458,1.5269206134440934,7.955922714194304,102.692,-0.3753614999978083,3
6.251350183491299,-5.253911659232074,-45.69309722491492,47.53609973369658,-11.72177887105112,2.5496744150066664,6.33166342300359,102.696,-0.37136149999780343,3
7.018544909236955,-3.911371867017854,-43.4375403975686,44.52466973858687,-9.820830947937758,3.035410274322049,2.5911182903783527,102.7,-0.36736149999779855,3
6.44920931959823,2.6486555844485538,-43.32505170573486,40.057881977099235,-3.534682496920497,1.1888248666770915,-3.484837545167739,102.704,-0.36336149999780787,3
4.470598484471908,13.135195968787313,-45.999075372880405,35.47717535996103,5.9556325324477495,-2.9211390577215384,-10.11838791506605,102.708,-0.359361499997803,3
2.311474568723102,22.161940905313525,-49.65765248996598,32.70183909090319,13.83925333719797,-6.970996306479221,-14.385859105692564,102.712,-0.3553614999977981,3
1.4981149941867493,24.37078557592457,-51.5112711396896,32.85669452020642,15.377598204603066,-8.226905791389967,-14.36501636384123,102.716,-0.3513614999978074,3
2.540848860559866,18.87189751543686,-50.134610526633814,35.379604139155425,9.947893259364264,-5.8956508704750314,-10.709982377407547,102.72,-0.3473614999978025,3
4.579789206410146,9.80318235038151,-46.493359002744526,38.4400028911453,1.5510987163449936,-1.7235613808466252,-6.157152780690774,102.724,-0.34336149999779764,3
6.292466713730947,2.5390811572774346,-42.82688456121518,40.3574753849552,-4.745586944723465,1.6922250043366829,-3.308776754361596,102.728,-0.33936149999780696,3
7.119256068148508,-0.7537342135709756,-40.66642533581851,40.806656479800274,-7.047464461102598,3.182392334282631,-2.6406808717393244,102.732,-0.33536149999780207,3
7.59310766732061,-2.045557053136759,-39.939966232445364,40.78491138162536,-7.566157414314054,3.6705485187863096,-2.4968868678361016,102.736,-0.3313614999977972,3
8.515429501426993,-4.312890258018107,-39.795399577087956,41.443068971154425,-9.562371330089572,4.713634257398187,-1.0014715647839596,102.74,-0.3273614999978065,3
9.904986117784066,-7.824960117212934,-39.95520797622308,42.89919738136542,-13.526418206582619,6.551162329066687,1.951240471802468,102.744,-0.3233614999978016,3
10.852777079395912,-9.725718136755178,-41.00793585075374,44.128512084949506,-16.479463351215056,7.726657870635309,4.505170303743257,102.748,-0.3193614999977967,3
10.449405039949347,-7.264215926600549,-43.37466877399525,43.99022666371824,-15.06825259601421,6.6637523635154725,4.603753229426968,102.752,-0.31536149999780605,3
8.816450234899017,-1.2205879883028652,-46.242893940466146,42.392065149019615,-9.288909888064675,3.533136661031289,2.010739771883784,102.756,-0.31136149999780116,3
7.138503482491805,4.152658604304762,-47.8390304982753,40.488120999141536,-3.030201182770499,0.4236252075757687,-1.3336766124680475,102.76,-0.3073614999977963,3
6.600832448262692,4.818142641553665,-46.94438436075034,39.723596319447125,-0.7759960687355308,-0.45442829389157563,-2.9677626858860315,102.764,-0.3033614999978056,3
7.265534101539188,0.71906120760354,-44.141519393082135,40.599302121160065,-3.593467035101836,1.1971185489010405,-2.046029551019856,102.768,-0.2993614999978007,3
8.016707545864474,-4.072243747948937,-41.446159060432514,42.25474181663439,-8.229469230369567,3.4920412921939223,-0.015618615941750822,102.772,-0.2953614999977958,3
7.66100136276128,-5.008431442931251,-40.58397502703596,43.200355332155695,-10.127027795064397,4.12673642202492,0.7313411480897211,102.776,-0.29136149999780514,3
6.123051092092535,-1.069800700523443,-41.54743163989364,42.52057278445956,-7.470762243804086,2.486797046651473,-1.0424263389823805,102.78,-0.28736149999780025,3
4.570994862977721,4.5557118799815575,-42.79335945299116,40.532897008482784,-2.552236671641388,0.11165723886375911,-4.425664865673261,102.784,-0.28336149999779536,3
4.349728967247005,7.5048933537174065,-42.81190040656699,38.44979263425185,0.5517974353482866,-0.8265673096395636,-7.217744674357998,102.788,-0.2793614999978047,3
5.754070480514301,5.930519965825895,-41.487020791640006,37.45174067810927,-0.4446441269239944,0.5146741469749081,-7.719340352860348,102.792,-0.2753614999977998,3
7.805319792410806,1.5022852186365194,-39.9801658470282,37.95913557036125,-4.509213846494861,3.0869914926463764,-5.864352380531887,102.796,-0.2713614999977949,3
9.194190291551331,-2.7457468916308723,-39.413362834104674,39.556128363667725,-8.822439401836405,5.147152508910039,-2.915922036557135,102.8,-0.26736149999780423,3
9.428625634625693,-5.185427430893842,-39.78808938222518,41.41269613771791,-11.425267462850359,5.864699606225865,-0.30723710260008075,102.804,-0.26336149999779934,3
9.081796236265367,-6.2669755596352585,-40.205729602001945,42.75934315283218,-12.335170634682708,5.754812683454417,1.2119237237679417,102.808,-0.25936149999779445,3
8.980336741036746,-6.90546873988935,-40.02754612264456,43.14489602206931,-12.446718965569412,5.6936901018309065,1.5608109631663643,102.812,-0.2553614999978038,3
9.233607275986243,-6.804379780973526,-39.65465795957371,42.518461943800496,-11.896839567005825,5.737337725177091,0.8664703625892219,102.816,-0.2513614999977989,3
9.12349173440247,-4.751449765845091,-40.084525417428395,41.25142821815117,-9.888083186181753,5.060538018434554,-0.7113996015329597,102.82,-0.2473614999978082,3
7.960442785507811,-0.5190971455901278,-41.74464828222583,40.05799606226665,-6.095953941339548,3.0496661827050584,-2.7084056613240035,102.824,-0.24336149999780332,3
6.006724500825148,3.9234860308265813,-43.877257226549865,39.69227350153148,-1.893863633855895,0.31746090718690123,-4.168824079964333,102.828,-0.23936149999779843,3
4.482486580836959,5.542455089044987,-45.1618625672602,40.48723735501028,0.2353467558147208,-1.5264773749612117,-4.059185838485501,102.832,-0.23536149999780775,3
4.577501524617147,2.866247823077735,-44.965145428314315,42.06572986328666,-1.2373121563123828,-1.2230016675339976,-2.084019958820827,102.836,-0.23136149999780287,3
6.378479778311574,-2.4445441091735813,-43.96043067273481,43.53604366742321,-5.3508748316454735,0.9613563418707387,0.8799698259483658,102.84,-0.22736149999779798,3
8.718449752619836,-6.724925203368987,-43.50716814333509,44.099837419057984,-9.232466493554163,3.3748728060236104,3.2713998625568323,102.844,-0.2233614999978073,3
10.086879754247636,-7.167212484310832,-44.422348190906845,43.595124908762934,-10.319964386965493,4.305550104904329,3.9219702942682657,102.848,-0.2193614999978024,3
9.769232858451566,-3.8083334794289962,-46.33590111469673,42.51046931210132,-8.188514664369862,3.256894296371191,2.796152791571504,102.852,-0.21536149999779752,3
8.233867033122435,1.0259407997333667,-48.175206075047846,41.48039074609284,-4.422734282058966,1.0777415852300773,0.7800001929281057,102.856,-0.21136149999780685,3
6.541673330012815,4.992638409549957,-49.188031626835496,40.75987070302899,-0.9378532285947101,-0.9904531823855127,-1.1778444047760201,102.86,-0.20736149999780196,3
5.440652669486436,7.387547298168912,-49.45544927038907,40.17929755714249,1.4478164668197058,-2.3069002425079397,-2.6929644787205267,102.864,-0.20336149999779707,3
4.984024635318681,8.765047665712572,-49.474918477265184,39.578096032423375,2.9051380018529547,-2.9586322913609058,-3.7987555666814683,102.868,-0.1993614999978064,3
4.885645968886239,9.340526459498388,-49.390430249066,39.2098332916063,3.4284944613870425,-3.1183063317902193,-4.355763600521732,102.872,-0.1953614999978015,3
5.084083531042904,8.191326732462718,-48.76564238150081,39.630039399540436,2.1888532802728906,-2.512194563846401,-3.8164659979717155,102.876,-0.1913614999977966,3
5.8578597728507935,4.256066620202674,-47.15137697693075,41.118524209318004,-1.6928569791438548,-0.6636131445738311,-1.724603501723008,102.88,-0.18736149999780594,3
7.38466350526279,-1.930974426999178,-44.81397098339745,43.20540719012123,-7.712457602530286,2.3393168036465584,1.5280155138963587,102.884,-0.18336149999780105,3
9.259666355738588,-7.743883454290778,-42.79996305362469,44.8251077164998,-13.509053625948301,5.427628679965867,4.540497381659516,102.888,-0.17936149999779616,3
10.551430699326703,-10.005268351130542,-42.19083208670785,45.03820602191132,-16.120991751806542,7.055302136814721,5.672153331592205,102.892,-0.17536149999780548,3
10.440610678879045,-7.3311590871391115,-43.225076696354265,43.70887071432135,-14.051986687462477,6.285180608047565,4.173560469707911,102.896,-0.1713614999978006,3
8.903865431867453,-1.2199992278577851,-45.096852500854645,41.55143269530944,-8.39657405869942,3.5324452413794196,0.7256824188555534,102.9,-0.1673614999977957,3
6.833946940598715,5.034040855682958,-46.58569226735546,39.53534853024014,-2.085807927708452,0.32789050107762496,-3.0597266325355217,102.904,-0.16336149999780503,3
5.469964348379747,8.607536274594292,-46.92304461467055,38.19843901436277,2.0722805156192754,-1.6935568524237699,-5.731618685861756,102.908,-0.15936149999780014,3
5.58308275463624,8.744347708633237,-46.182193907723565,37.43725931543567,2.9952150862826046,-1.77819815219703,-6.799512805067143,102.912,-0.15536149999779525,3
7.0250047889329394,6.675291883243073,-45.01653738501718,36.84773409963152,1.5355234694040902,-0.34482070405658233,-6.722196152137853,102.916,-0.15136149999780457,3
8.915496124973982,4.360951588798615,-44.1474857597152,36.19714238401613,-0.4926806775536081,1.4640690528467981,-6.297492713366716,102.92,-0.14736149999779968,3
10.259326142878416,3.2620227291649044,-44.05789889963547,35.58278598857515,-1.5060079164197642,2.520156582961668,-6.060384627524924,102.924,-0.1433614999977948,3
10.539996933591677,3.8344481064183724,-44.950907676650104,35.22936020558534,-0.8344928606179634,2.266737346102602,-6.08514205442993,102.928,-0.13936149999780412,3
9.953930422139713,5.5766975840494215,-46.72659215434116,35.241403165550636,1.1512400398470888,0.9198304764812171,-6.11650953372692,102.932,-0.13536149999779923,3
9.238717129721643,7.206732863259909,-48.86039861008881,35.59706893879156,3.1891184450255374,-0.6342577078397916,-5.736981058870028,102.936,-0.13136149999779434,3
9.264605915401154,6.955481601006629,-50.40787515070803,36.33544976577143,3.4744459619926666,-1.1761138417530068,-4.445994251710828,102.94,-0.12736149999780366,3
10.605974673176629,3.2591170132481952,-50.40742017010476,37.65153400809278,0.35314315896052884,0.31429070944841553,-1.776639392821775,102.944,-0.12336149999779877,3
13.255925908393948,-4.21826994012403,-48.557221195202985,39.72515771759992,-6.709847269222106,4.07585182673376,2.4284029518215062,102.948,-0.1193614999978081,3
16.580753372578418,-13.913595418883556,-45.62344676752709,42.42522805460443,-16.419439436230522,9.2473988001823,7.7031013952760174,102.952,-0.11536149999780321,3
19.544725985631672,-22.777209270852293,-43.119760283210645,45.19250979281158,-25.84321366153018,14.100864338535688,12.902083098614163,102.956,-0.11136149999779832,3
21.140228486502142,-27.738771291734977,-42.3959943761527,47.2487634379407,-31.637436849424837,16.807711525343535,16.57549906752612,102.96,-0.10736149999780764,3
20.84735806664635,-27.30404921080654,-43.81858488926443,47.98783389382518,-31.678432617719857,16.340294681827274,17.625580075492017,102.964,-0.10336149999780275,3
18.89502947660933,-22.223083945482948,-46.65838617325137,47.27300176203681,-26.140991465132213,12.985684537373661,15.868745807846723,102.968,-0.09936149999779786,3
16.16818029614078,-14.914631689987058,-49.67921112465098,45.48362707264457,-17.423417626704385,8.189926397796416,12.175526674760668,102.972,-0.09536149999780719,3
13.78612774337073,-8.215879015377316,-51.863545305592,43.34962883011552,-9.019816295306464,3.8531934167283457,8.1102906260612,102.976,-0.0913614999978023,3
12.56560669611387,-4.272119306077861,-52.74396815989347,41.68857305873128,-3.9550039280476197,1.467182587055784,5.249729052118043,102.98,-0.08736149999779741,3
12.662142323403922,-3.969366240975282,-52.31114491974256,41.11969637632328,-3.5096583626239775,1.5051874252057942,4.503143398408836,102.984,-0.08336149999780673,3
13.59581264455626,-6.859556573569689,-50.84835683052295,41.81501444022426,-6.795594191084147,3.3232072678630145,5.769473242533272,102.988,-0.07936149999780184,3
14.646309026900793,-11.472380856284188,-48.91320230898568,43.40964304481235,-11.421700543608146,5.6159040245402245,8.13542761262467,102.992,-0.07536149999779695,3
15.3667782789303,-16.03064847214053,-47.29392559234525,45.20006871296887,-15.002480843364854,7.224721626917526,10.535486289033964,102.996,-0.07136149999780628,3
15.869097076500342,-19.4227493884861,-46.66878355577762,46.58519380363455,-16.68954543314873,7.861627090783463,12.465160406494096,103.0,-0.06736149999780139,3
16.668709658236562,-21.864136722593745,-47.07603237639078,47.45599571626433,-17.665486549462702,8.257359721500714,14.223590552445614,103.004,-0.0633614999977965,3
18.187996344440062,-24.5981833813187,-47.714171969591064,48.197329773855216,-20.079006643208842,9.54310799176894,16.462927884054412,103.008,-0.05936149999780582,3
20.291561592180777,-28.65278832090984,-47.46156369372187,49.26440642963283,-25.077548023665113,12.240579243554013,19.39535277292921,103.012,-0.055361499997800934,3
22.23504258485479,-33.61624701118718,-45.830830538617555,50.702261457038794,-31.496134067798362,15.638169828494199,22.367737747215305,103.016,-0.051361499997796045,3
23.10503367024654,-37.611582863213165,-43.522899984522574,52.07130621725647,-36.4308849005281,18.13490618824068,24.254121672520146,103.02,-0.04736149999780537,3
22.432482776276117,-38.69003659105115,-41.968758448631256,52.87255802503676,-37.40653374949035,18.379232418124182,24.381055569735707,103.024,-0.04336149999780048,3
20.50742063027926,-36.515498471371,-42.138634060508934,53.06364502240595,-34.3934105069521,16.323186615284417,23.153290770862416,103.028,-0.03936149999779559,3
18.15862283577834,-32.814651465163166,-43.62665276611097,53.13765107795246,-29.934799407207127,13.319084327695077,21.76074539705538,103.032,-0.03536149999780491,3
16.195258535501132,-30.125506308737922,-44.844919336641475,53.6593039396518,-27.238200669035322,11.164679380710485,21.189384458551324,103.036,-0.031361499997800024,3
14.959851148575597,-29.928981397516342,-44.20471804651965,54.7103191681565,-27.85614314559578,10.880567656975359,21.439104615924332,103.04,-0.027361499997795136,3
14.297573980724579,-31.781280138972747,-41.30832518588433,55.80960564825281,-30.88050384497269,12.184652483880013,21.678277056972377,103.044,-0.023361499997804458,3
13.861600697918576,-34.06539977907149,-37.20139913344252,56.402183033375145,-34.130910635559296,13.967521675384804,21.166404141394807,103.048,-0.01936149999779957,3
13.421119022099044,-35.47738480415821,-33.569988630120726,56.42427345736545,-36.04634542372096,15.219583650166369,20.028742728369053,103.052,-0.015361499997794681,3
12.935854314343212,-35.85312931787162,-31.60468488335006,56.36378315532747,-36.57834983051358,15.608264342319128,19.128262219745455,103.056,-0.011361499997804003,3
12.459543972675005,-35.82897099755782,-31.382785096835487,56.75410877820687,-36.60641243323421,15.401308664254016,19.203207112491626,103.06,-0.007361499997799115,3
12.09115084909524,-36.05335216919416,-32.059273253594554,57.63368658656368,-36.87996357930399,15.082556292835461,20.185195273598367,103.064,-0.003361499997808437,3
12.047494631009789,-36.90636964988306,-32.52589691038543,58.54522165037569,-37.703190552896515,15.136782230788945,21.405958600990598,103.068,0.0006385000021964515,3
12.68469004948497,-38.8022551475755,-32.020010368438854,59.07559668050557,-39.43544785393812,16.056580629959438,22.440846010002534,103.072,0.00463850000220134,3
14.279710077976981,-42.29310201452828,-30.412032719367737,59.3428070508563,-42.78222226478149,18.238614742760053,23.62622512708416,103.076,0.008638500002192018,3
16.667731338171954,-47.44258791136281,-28.178110000987218,59.861230987630144,-48.10607766160701,21.59517957980229,25.602633668352656,103.08,0.012638500002196906,3
19.10850011718339,-53.038685944049284,-26.13128679504288,60.87173177563505,-54.334705828032746,25.22755051505357,28.296896159252917,103.084,0.016638500002201795,3
20.658849348804914,-56.812351478507395,-24.965952555022323,61.844786359237744,-58.90550050295752,27.711219575477397,30.468949252967192,103.088,0.020638500002192472,3
20.86280729604151,-57.01705136969146,-24.777854487449282,61.778433949635726,-59.40242983731061,28.048047566355145,30.508046882418974,103.092,0.02463850000219736,3
20.17390700009202,-54.175044366269645,-24.890924394257414,60.13950115703932,-55.73340223871833,26.570375602107177,27.91558724000684,103.096,0.02863850000220225,3
19.649380113370064,-51.185473032238974,-24.25711761955514,57.578018088584614,-50.74809595435379,24.885330896828357,24.077957507364857,103.1,0.03263850000219293,3
20.07480127966452,-51.22023918613946,-22.278458785894166,55.63127498367209,-48.30816966149373,24.683636504777443,21.417154865413302,103.104,0.036638500002197816,3
21.241790843446008,-54.94040937386415,-19.446707739518505,55.52632131452221,-50.15445646755462,26.30785596541557,21.46560545755348,103.108,0.040638500002202704,3
22.046723141261477,-59.51938691265399,-17.19420294679362,57.086371801870186,-54.273341817472435,28.343481071028165,23.51035566276024,103.112,0.04463850000219338,3
21.394726861476006,-60.65134876580753,-16.927232179223015,58.77539249462765,-56.409313423707346,28.71342609280123,25.104348919833004,103.116,0.04863850000219827,3
19.176104891959973,-56.15253411968516,-18.922836190810727,58.968409193204245,-53.685935724539384,26.45621442722552,24.16057752264551,103.12,0.05263850000220316,3
16.487912695167754,-48.20273430294094,-21.96947153075086,57.41735235438765,-47.344482643236354,22.711866231519377,20.899557195853397,103.124,0.05663850000219384,3
14.897636231295504,-42.19434664533232,-24.09986149612639,55.61100921607659,-42.17745302555224,20.038361322553857,17.924654397085018,103.128,0.060638500002198725,3
15.33387983885619,-42.863285090703656,-23.923968250361906,55.609743681212294,-42.91148417439608,20.53522144071781,18.219892554675358,103.132,0.06463850000220361,3
17.459525372744753,-50.62112334670657,-21.606842433177672,58.25581840890885,-50.339089322693845,24.215418721244188,22.636292599680306,103.136,0.06863850000219429,3
19.948591304911506,-60.94425322813272,-18.797334161968426,62.275269313826925,-60.29804720767494,28.87073141234837,28.94504256668932,103.14,0.07263850000219918,3
21.37969501998358,-67.37907569509427,-17.557297626964786,65.11898131114823,-66.42316255106128,31.534360534724744,33.326499007263806,103.144,0.07663850000220407,3
21.076191361215265,-66.02220362950175,-19.003127793496088,64.95218643652467,-64.69766289371672,30.487724393570787,33.206892125403854,103.148,0.08063850000219475,3
19.391804856706568,-58.26847800344149,-22.530751030618394,62.193063412415746,-56.450354442996804,26.422498898064894,29.242216309869473,103.152,0.08463850000219963,3
17.396226300006333,-49.890156107002866,-26.114582566515626,59.29989357399732,-47.574742070274866,22.000944030829224,24.882416838960467,103.156,0.08863850000220452,3
16.25008202347489,-47.108114894275744,-27.518527638534977,58.907342289925424,-44.49235610552143,20.138548999354473,23.823025325577373,103.16,0.0926385000021952,3
16.61176202495744,-52.382379134896475,-25.69837740993058,61.771399019030774,-49.724021283552005,22.140233106751985,27.281383677638882,103.164,0.09663850000220009,3
18.31601081855783,-62.798288850939684,-21.5172238304446,66.16381375333368,-60.2039223207124,26.888477009515558,33.151133420689646,103.168,0.10063850000220498,3
20.45747158079361,-72.10730324252613,-17.272904684354412,69.19412279350608,-69.49812620317786,31.600699001283864,37.62604075447487,103.172,0.10463850000219566,3
21.886767692628506,-74.95744887754523,-15.29058693144976,68.98826619039808,-72.28698672668689,33.65554269760126,38.00444595505404,103.176,0.10863850000220054,3
21.90892491562743,-70.35373653151818,-16.498585440598443,65.99838552248615,-67.86489703333548,32.26450645716596,34.54540211017259,103.18,0.11263850000220543,3
20.757762935856775,-61.98650047040584,-19.962660544321295,62.481113130425385,-60.19937651076325,28.849252865650136,30.0604085935581,103.184,0.11663850000219611,3
19.45867029197384,-55.362139489481336,-23.670531477404964,60.68888473030641,-54.71125237517287,25.893589575989203,27.70277874378972,103.188,0.120638500002201,3
19.099495026473882,-53.99325029070907,-25.91591827716133,61.294317178546414,-54.389998129580306,25.16240255188879,28.74295194054164,103.192,0.12463850000219168,3
20.035026289106675,-57.47860620858615,-26.20840622577087,63.234105032635455,-58.20824480921043,26.64412655254913,31.98199936927622,103.196,0.12863850000219657,3
21.67251310578581,-62.66463783906543,-25.11845781679083,64.8848416578704,-62.77132311815464,28.951202107613486,35.04586190274122,103.2,0.13263850000220145,3
23.021063131745603,-66.56189301756041,-23.431533676093384,65.41363408273155,-65.44044135766431,30.68138683927689,36.317783997564085,103.204,0.13663850000219213,3
23.506985806403527,-68.40303501089578,-21.53444317229874,65.16949123327196,-66.11104746831462,31.465425800720205,35.90662281111346,103.208,0.14063850000219702,3
23.31216741718,-69.25657875502503,-19.574085706616025,64.97002909927731,-66.29870747400025,31.817657825526663,35.029517593657324,103.212,0.1446385000022019,3
22.963844954763903,-69.98974148239873,-18.01746068346003,65.13129262771959,-66.79819811200976,32.11448783190179,34.59577486348321,103.216,0.1486385000021926,3
22.657821080646315,-69.89462122358141,-17.759320852501798,65.20511395930254,-66.48937283876559,31.893860864822692,34.386519010077265,103.22,0.15263850000219747,3
22.070102232393364,-67.5168198290312,-19.41182797227196,64.60893967757063,-63.62448216254092,30.32192693275587,33.552161121124236,103.224,0.15663850000220236,3
20.889796636132083,-62.88476890879589,-22.397291532145452,63.450338431467365,-58.33021487165814,27.414146738474923,31.85799350652513,103.228,0.16063850000219304,3
19.49478549905879,-58.71266260237889,-24.89522295848129,62.68515523546424,-53.63756499239481,24.68039873403528,30.385111084696717,103.232,0.16463850000219793,3
18.945831265809996,-58.91869696989227,-25.01141251042608,63.4063468193522,-53.58926068714314,24.278030292609163,30.889161789690146,103.236,0.16863850000220282,3
20.116184911773043,-65.36323664215327,-22.320359269902546,65.88403255011183,-59.790812758266654,27.199331189494245,34.27486001894335,103.24,0.1726385000021935,3
22.706196849422458,-75.6582000789202,-18.394579232223904,69.20741326244661,-69.48772448727956,32.10805888710025,39.51883479945436,103.244,0.17663850000219838,3
25.156797438094255,-84.26894148843093,-15.709367504749023,71.84564920864983,-77.13215493477907,36.03846835972758,44.06954892148735,103.248,0.18063850000220327,3
25.72512386676836,-86.34048362100363,-15.756998715460393,72.66692209266036,-78.3691776522039,36.55012880175828,45.524485227480945,103.252,0.18463850000219395,3
23.88740057542482,-81.23005992301086,-17.959692719432724,71.61847380229607,-73.1964843180822,33.57958852028512,43.300774062519764,103.256,0.18863850000219884,3
20.851391135664056,-72.88740567807456,-20.278119666062935,69.6132756927161,-65.74879316832339,29.440735699932716,39.00891598414802,103.26,0.19263850000220373,3
18.701125576678947,-66.88139780650128,-20.89525847195947,67.8271068317493,-61.07762304584999,27.032788034274475,35.29325888160804,103.264,0.1966385000021944,3
18.886991539402157,-66.61850913446379,-19.44843779963468,67.00450955833443,-61.74596356849029,27.826230843154594,34.095178561697594,103.268,0.2006385000021993,3
21.304559975794973,-71.6940169903922,-16.8349040033857,67.22837882396121,-66.86503065529413,31.229627541224318,35.63138530809156,103.272,0.20463850000220418,3
24.60961013061036,-79.16738598474313,-14.048844594801528,68.14218022746238,-73.74372629562839,35.550216197742834,38.657950319357475,103.276,0.20863850000219486,3
27.30981255052128,-86.01743032821025,-11.38054642850082,69.2756181922682,-80.06689458111981,39.35431187202794,41.52512872301345,103.28,0.21263850000219975,3
28.615492233536074,-90.4735492310695,-8.763077065605032,70.17820698531149,-84.56475476950789,41.94855338466002,43.05912846267484,103.284,0.21663850000220464,3
28.475073256595948,-91.61903107129739,-6.688408574478926,70.38455931177566,-86.18570427112411,42.888988981142916,42.74452236738588,103.288,0.22063850000219531,3
27.107189598542714,-88.65136309641643,-6.3965056605303365,69.4625705466199,-83.53912821599036,41.542542385336276,40.47469444243825,103.292,0.2246385000022002,3
24.732636897849595,-81.3247882257989,-8.79031481759962,67.29082093175022,-75.93258872023078,37.56228505129713,36.461948882732365,103.296,0.2286385000022051,3
21.769504168799035,-71.31372958286316,-13.029880080091822,64.37887592993395,-65.17138356541197,31.888266758172225,31.47834637146173,103.3,0.23263850000219577,3
19.060924078072098,-62.589273345456704,-16.416895040913374,61.83974846375677,-55.82202234757698,26.961685442320764,26.96583274979742,103.304,0.23663850000220066,3
17.583745336465064,-59.424748859652894,-16.15076511414409,60.819666872138,-52.69588250165649,25.382552524758854,24.48543174209156,103.308,0.24063850000220555,3
17.7007387381907,-63.08991419333833,-11.680281085260312,61.684965421039806,-57.11645014296041,27.84998013525649,24.65096112707206,103.312,0.24463850000219622,3
18.68084818433776,-70.18745394865988,-5.5212683215318075,63.618702850842986,-65.29710602048804,32.26278681630579,26.44349043919319,103.316,0.2486385000022011,3
19.126937984699456,-74.69495142847697,-1.5615992451401028,65.08700526740746,-70.80143640896074,35.09682753093235,27.74721629953857,103.32,0.2526385000021918,3
18.102763214952134,-72.53636804747337,-2.1101656207382287,64.94742062103867,-69.48150368184773,34.13994198428256,26.937911529785985,103.324,0.2566385000021967,3
15.977642101268858,-64.89062539064312,-6.189914022421909,63.34419810432228,-62.76573521343889,30.262018817337804,24.262415603574986,103.328,0.26063850000220157,3
14.151567465266554,-57.16793453450802,-10.568337396954767,61.58520698730858,-56.28743565438105,26.58661016244753,21.70032297082118,103.332,0.26463850000219225,3
13.832522001813972,-54.31566131936967,-12.599932312914252,61.002690426972684,-54.87819811742903,25.718999249171638,21.23958007175468,103.336,0.26863850000219713,3
14.957725065098224,-56.52385586234286,-12.34286692306949,61.726594584364605,-58.29612436906106,27.48344591874522,22.995081586265375,103.34,0.272638500002202,3
16.25927285540089,-59.20960221108744,-12.118785252982908,62.48535629879095,-61.535960729939035,29.20295917881926,24.916759860998287,103.344,0.2766385000021927,3
16.419709830653723,-57.35148186336156,-14.055517281518185,61.716555127373844,-59.49160118575765,28.246067725768178,24.516267646841644,103.348,0.2806385000021976,3
15.245393510213919,-50.25513088479999,-17.968793873859088,59.07912066541395,-51.77917714170446,24.495938289240122,21.182649435495545,103.352,0.2846385000022025,3
13.784099132120778,-42.3884183701826,-21.52557079804464,55.99442373660259,-43.34552914067596,20.496675519666237,16.98431992051361,103.356,0.28863850000219315,3
13.321785095441161,-39.50496363845407,-22.437230112618238,54.61855786884383,-40.29508632808483,19.19330037374308,15.10363674112906,103.36,0.29263850000219804,3
14.230649280910999,-43.58014568098641,-20.561656793655906,56.04719584033382,-44.68090821267331,21.36974509173009,17.175120474340712,103.364,0.29663850000220293,3
15.721650417977795,-51.12675012286248,-17.975979030231745,59.31716342534292,-52.87616680079522,25.08266981840674,21.857412292162,103.368,0.3006385000021936,3
16.646926567273713,-56.31310131024965,-17.04905377246778,62.1390737707949,-58.83528038458299,27.481776992885127,25.929658136346692,103.372,0.3046385000021985,3
16.517968116420636,-55.950425420279025,-18.37305996489599,62.776401248605204,-59.179844084849734,27.246630014849515,26.96233009014942,103.376,0.3086385000022034,3
15.788953197984622,-51.87061980880338,-20.422493351218606,61.4399841247817,-55.59621123117806,25.448978646054766,25.211408422378994,103.38,0.31263850000219406,3
15.246017697437628,-48.77854295390933,-21.11279287357611,59.97286649503789,-52.681813823251204,24.240718423057935,23.113547035203187,103.384,0.31663850000219895,3
15.206111022803306,-49.804737610131426,-19.713124541431625,60.12188100379872,-53.51825694482399,24.76866567081249,22.93946139897253,103.388,0.32063850000220384,3
15.321417965630015,-53.86200099036052,-17.392040817201114,61.95452282199158,-57.06816250638534,26.266944256571733,24.779319269753667,103.392,0.3246385000021945,3
15.087955077351392,-56.976603054124396,-16.051353294260032,63.8300537751925,-59.52131460926369,27.003807220680194,26.627454884424065,103.396,0.3286385000021994,3
14.43474166302346,-56.04883660497282,-16.63609033308609,63.91392798603913,-58.014024788005344,26.00260029715668,26.34768177984499,103.4,0.3326385000022043,3
13.752944496386108,-51.48689966820447,-18.42289694677321,61.83910697608428,-53.173895142298726,23.87344832837975,23.61819195642626,103.404,0.336638500002195,3
13.375818102256545,-46.507030589087506,-19.770457682909893,59.023589317908296,-48.31681902465445,22.092977516240804,20.10192236024621,103.408,0.34063850000219986,3
13.12267541792414,-44.075600636828085,-19.532365713953325,57.4052672830622,-46.314883052531165,21.565588591507982,17.82931811081825,103.412,0.34463850000220475,3
12.44581701732779,-44.45741171843191,-17.91017144953577,57.780397686558366,-47.14652200170669,21.869254244472245,17.41863622131598,103.416,0.34863850000219543,3
11.066742485555928,-45.47610300505875,-16.159097392404536,59.23516696537835,-48.26906786260699,21.81700921305225,17.78534959608378,103.42,0.3526385000022003,3
9.447804808360496,-44.94869195276932,-15.538043398078418,60.10952628747154,-47.253670979737066,20.702563969692658,17.480511265060144,103.424,0.3566385000022052,3
8.573799884993583,-42.86057733598434,-16.389987318560124,59.53525703673917,-44.14241968593118,19.033374376140472,16.250553042602434,103.428,0.3606385000021959,3
9.181430664635215,-41.300264696464446,-17.993815119330527,58.12754411483817,-41.40492305311477,18.108915112050465,15.28111297738592,103.432,0.36463850000220077,3
11.113049335259399,-42.346457529490095,-19.19125874111018,57.26017582988673,-41.62881802489539,18.866220355442344,15.927088774907205,103.436,0.36863850000220566,3
13.370822267893805,-45.93763323112207,-19.269757013323808,57.685678658280246,-45.084827684481546,21.022595298898718,18.213121703854643,103.44,0.37263850000219634,3
14.82681213012534,-49.69039828832696,-18.46304523508769,58.8337194442049,-49.35378232962168,23.23967985423291,20.6070144244732,103.444,0.3766385000022012,3
14.994630436116946,-50.85397849897488,-17.722550526867114,59.43261075276171,-51.35257243691355,24.15726856319735,21.344591710679545,103.448,0.3806385000021919,3
14.263838067122474,-48.69917032045153,-17.93007328648581,58.82250388579685,-49.990972303968945,23.445583185958895,20.088290772028067,103.452,0.3846385000021968,3
13.482206291515357,-45.23463194032696,-19.15728911929851,57.66592214448293,-47.11752191195443,22.02590289099931,18.335411644582322,103.456,0.3886385000022017,3
13.278988590222431,-43.5343259244625,-20.59911981909777,57.32981639131073,-45.85128224402678,21.27125786311817,18.104665142935744,103.46,0.39263850000219236,3
13.649073673513845,-44.99616869824016,-21.30362967893089,58.48473954208601,-47.65973555818001,21.80851761278977,20.01720310696145,103.464,0.39663850000219725,3
14.04313310118515,-47.85539185362833,-21.116397864152315,60.25490179058225,-50.72949472532565,22.892199622260996,22.511049929077895,103.468,0.40063850000220214,3
13.823008934536746,-48.360478757354926,-20.971240428829095,60.80280240858449,-51.208415090970554,22.91768375429871,22.99663917973465,103.472,0.4046385000021928,3
12.734586491104595,-43.83532468190444,-22.157525936714674,58.9237573440998,-46.47267665203397,20.743667698451244,20.06351573699745,103.476,0.4086385000021977,3
11.1002715082689,-35.16226364744122,-25.128493073567736,55.24752993329581,-37.70571509007972,16.78172044533721,14.86694992418676,103.48,0.4126385000022026,3
9.637673080758752,-26.524239907468996,-28.92199656776918,51.91922267587367,-29.465570879570258,12.90801333104527,10.446898267130742,103.484,0.41663850000219327,3
9.031030477225423,-22.445073253502834,-31.780485405087994,50.95543266614953,-26.39804181482392,11.173884053448353,9.463253276591479,103.488,0.42063850000219816,3
9.519689429621545,-24.479060347774404,-32.459671695215114,52.66505529282836,-29.75512489741192,12.318737851770605,12.190374366180949,103.492,0.42463850000220305,3
10.761417080807673,-30.27464663227756,-31.055270580630136,55.490414961090565,-36.640026135608124,15.308405776327417,16.40970553029018,103.496,0.4286385000021937,3
12.06041430725019,-35.719010596842566,-28.64435222860815,57.36881662347233,-42.558510514035866,18.26441152138523,19.228230887378835,103.5,0.4326385000021986,3
12.801230794213017,-38.18499008026454,-26.203288150755306,57.3709871662163,-44.94875487020825,19.9329291808098,19.23188595998899,103.504,0.4366385000022035,3
12.777198369343036,-38.00228986145049,-23.95041888328827,56.17528138225416,-44.566064257104664,20.38670978013215,17.17958347011409,103.508,0.4406385000021942,3
12.18877514888406,-37.04371181889906,-21.744516063183326,55.064062178900045,-43.70262183344884,20.418212947869975,14.819799439877174,103.512,0.44463850000219907,3
11.364316690717144,-36.107257476828885,-19.9760559482434,54.51605602403465,-43.25644733893439,20.358062954311055,13.101325094943853,103.516,0.44863850000220395,3
10.484640828739215,-33.885860246530356,-19.792341105559146,53.798412137279705,-41.6989121929819,19.593812633481026,11.500247945571449,103.52,0.45263850000219463,3
9.5573267805025,-28.625183508231633,-22.184800241911788,51.92605823005923,-36.992570580429785,17.31529310767821,9.003876212333267,103.524,0.4566385000021995,3
8.617866458362306,-20.72774542880103,-26.759606973533305,48.968356405211075,-29.439550358203807,13.708498361479714,5.632181535485044,103.528,0.4606385000022044,3
7.8983985248948265,-13.439760255290194,-31.530046978077095,46.312524761209986,-22.378582005852433,10.286262980264954,2.8512029728499675,103.532,0.4646385000021951,3
7.73978943174572,-10.572046878718119,-34.180237232891756,45.522323460786126,-19.725662401000633,8.859056574152298,2.3567770459263904,103.536,0.4686385000022,3
8.293996283362427,-13.21476445971329,-33.791589257351596,46.85755853171834,-22.546598686584577,10.02264285078556,4.378754737783169,103.54,0.47263850000220486,3
9.294432119694305,-18.581926173840902,-31.48225112105864,48.924702254634326,-27.955111765411917,12.585314057588032,7.214840628394802,103.544,0.47663850000219554,3
10.12960106095129,-22.206348780791448,-29.382922416553644,49.876163172581805,-31.48333749679937,14.502602499808326,8.564241960803033,103.548,0.48063850000220043,3
10.186634867454332,-21.53265748664915,-28.920042500299125,49.07097593505001,-30.75944479734132,14.468636647004223,7.485897334781036,103.552,0.4846385000022053,3
9.203207897513327,-17.64878901926688,-29.965236697357994,47.628543699506565,-27.116082864986247,12.733720936472345,5.164636048118882,103.556,0.488638500002196,3
7.38364641990778,-13.731513255322847,-31.478222227351765,47.34092730390487,-23.812282708367302,10.52360543625575,3.7738390309735266,103.56,0.4926385000022009,3
5.246081069252959,-11.91061203309299,-32.7954526567461,48.967305852861784,-22.796156057208076,8.781282880545374,4.507550944387097,103.564,0.49663850000219156,3
3.351346514439799,-11.595934237501673,-34.18912067799928,51.510415863785475,-23.164201040796037,7.49206193077865,6.595431647293076,103.568,0.5006385000021965,3
2.0778084186846035,-10.646100401892628,-36.2153057775372,53.1226352324872,-22.582482892854653,6.116942277404807,8.12650314370792,103.572,0.5046385000022013,3
1.5073952216782842,-7.887983746815168,-38.696938216424186,52.74715430514673,-19.94833105172343,4.483565419636994,7.795138068500819,103.576,0.508638500002192,3
1.4207325127258086,-4.318132198662896,-40.558920690573245,50.95320324824601,-16.493993055586937,3.0901983878482784,5.906911796003013,103.58,0.5126385000021969,3
1.4067863298463095,-1.8815825193140052,-40.79751708807391,49.25563991365227,-14.315829140493433,2.5087633459795464,3.8237391584032627,103.584,0.5166385000022018,3
1.0893848242688067,-1.286037790088074,-39.62693945870825,48.66403222159319,-14.007717033595876,2.5945813658611683,2.5726958706690533,103.588,0.5206385000021925,3
0.39217540054338773,-1.2375459748649575,-38.58581927785911,48.87438152572595,-13.941829501572577,2.4397319388437135,2.0589058891836336,103.592,0.5246385000021974,3
-0.3268122163238366,0.06323162136779302,-39.36128371973825,48.81031740364506,-12.002687223389474,1.2324718465775133,1.5847622878612269,103.596,0.5286385000022022,3
-0.40770025773120727,2.675834081177312,-42.32102641513915,47.89230673619413,-8.080963568018811,-0.7708021189964683,1.0123515425142184,103.6,0.5326385000021929,3
0.750606478054163,4.230812462908897,-46.0485721949619,46.75601057774273,-4.844006917289562,-2.129578706038227,1.2847282995839255,103.604,0.5366385000021978,3
3.3167180162522434,1.6381408308516363,-48.30993683588531,46.7270450981588,-5.893042303490526,-1.1764917793051428,3.6975669734183354,103.608,0.5406385000022027,3
6.8703340002386994,-6.193793829087331,-47.682492030235075,48.55791043215925,-12.787190468012263,2.6759633705762353,8.559268524360506,103.612,0.5446385000021934,3
10.544131049049016,-16.939507929985695,-44.59190934840274,51.59757646799977,-23.397743445624794,8.2989043484407,14.488548858523759,103.616,0.5486385000021983,3
13.376018091410353,-25.96537002136415,-41.036019448841195,54.135919163387825,-32.93654908646966,13.37385136582938,19.052149936047453,103.62,0.5526385000022032,3
14.714463950680994,-29.18810175035189,-39.26889573899823,54.61734187715133,-36.9111225848055,15.734852258356513,20.3014619879668,103.624,0.5566385000021938,3
14.526713646912997,-25.63942902341741,-40.38719325188992,52.71453226417547,-33.90810740145018,14.653804962906257,18.039678802762815,103.628,0.5606385000021987,3
13.464236068992914,-17.98395442806555,-43.72993752858254,49.444878683938924,-26.339814757599743,11.25793305255743,13.886658908758573,103.632,0.5646385000022036,3
12.565823051843887,-10.671983522591495,-47.42890757967699,46.33065159695959,-18.712075107578613,7.791302750269312,10.12518881077431,103.636,0.5686385000021943,3
12.639457296331118,-6.959547581484074,-49.726553671577605,44.32091449686881,-14.573561915994427,6.126786152720535,8.172505223135651,103.64,0.5726385000021992,3
13.6528760340972,-6.785832246894822,-50.18849631086456,43.28209069904134,-14.172494639837067,6.467063149040835,7.744793315417073,103.644,0.5766385000022041,3
14.628656110038795,-7.022702528723176,-49.95236961749907,42.35703335292973,-14.479866795467142,7.1904327315288645,7.278816747192008,103.648,0.5806385000021947,3
14.292193618270844,-4.063121258443503,-50.75904445260889,40.83432106326752,-11.714514202373522,6.1128059790638085,5.297359252823764,103.652,0.5846385000021996,3
12.113732020684578,3.043973928375747,-53.421235779722956,38.82950738993399,-4.640195319803231,2.3564123170226985,1.717805443509194,103.656,0.5886385000022045,3
8.919669405697656,11.37526986051482,-56.943078818947576,37.25734511083203,3.9433453652442987,-2.644376579100123,-1.9081743442410872,103.66,0.5926385000021952,3
6.453498184469835,16.05328432559844,-59.130744206624776,37.12224061727893,8.962337119343461,-5.982191171181335,-3.4784248688845527,103.664,0.5966385000022001,3
6.110386733589546,14.024018126181454,-58.34719773212271,38.68703870000502,6.959315789141423,-5.477555584007778,-1.9560060327869306,103.668,0.600638500002205,3
7.846133138201803,6.655524433656177,-55.0009985984038,41.197730719667916,-0.984134887644605,-1.4945327180328731,1.7802779125553914,103.672,0.6046385000021957,3
10.202243098785992,-1.1349364025797046,-51.4401446418243,43.41306390563553,-9.83753436102016,3.209403441848999,5.587904959153655,103.676,0.6086385000022005,3
11.453108090621075,-4.615166712906704,-50.230461819872886,44.51423179343817,-14.363767809128124,5.553584417354658,7.688472040493825,103.68,0.6126385000022054,3
10.892878649221565,-2.66279854165197,-52.232394865302524,44.61792292140903,-12.871393708940262,4.388458571094821,7.867326974169354,103.684,0.6166385000021961,3
9.176682398770218,2.043877042964365,-56.107038249281906,44.44629058883588,-7.8162651784319195,1.0371855595187602,7.219267837624623,103.688,0.620638500002201,3
7.527365425655732,6.008696802672011,-59.611914606917495,44.481222911481154,-2.9925359032944576,-2.1932611370895474,6.780426507492641,103.692,0.6246385000021917,3
6.651697227991583,8.076668536975697,-61.44441959310036,44.43983354449517,-0.1693683196568959,-4.010274167400965,6.455862770695806,103.696,0.6286385000021966,3
6.380440695292601,9.762346822236422,-61.969406308458446,43.62093728391339,1.661158727998919,-4.789443956465069,5.333966735482218,103.7,0.6326385000022015,3
6.2268146488391025,12.699187113253851,-62.31450857589875,41.804186929176225,4.048203121954562,-5.491302155371545,3.0274189180465734,103.704,0.6366385000021921,3
6.11717482417833,16.116921478881796,-62.89394048432046,39.77181737842219,6.538244097910607,-6.200082341805525,0.549865046733103,103.708,0.640638500002197,3
6.45087184919485,17.178886515525562,-62.89052596817462,38.825188491482535,6.709207360241249,-5.9167411789179924,-0.3568870693515632,103.712,0.6446385000022019,3
7.453880629434771,13.95779000237941,-61.17696370316807,39.654915531239766,2.8350714761473848,-3.80664204835614,1.0819481123228936,103.716,0.6486385000021926,3
8.611797396846598,7.948871582400505,-57.689226474370486,41.63121772036168,-3.6687933239005637,-0.4997768990629154,3.6659099977252,103.72,0.6526385000021975,3
8.913315925371904,3.3376794164880765,-53.84155105784783,43.25684460648712,-8.782776504646366,2.0499174260901674,5.066570188056945,103.724,0.6566385000022024,3
7.762462335537103,3.488254853861616,-51.5529746305083,43.42691156025953,-9.147996327220106,2.142633259730733,3.880708948339433,103.728,0.660638500002193,3
5.661685329356839,7.97413472165251,-51.795988784088784,42.33749292348047,-4.978457745727147,-0.15929784735537608,0.9604314026815173,103.732,0.6646385000021979,3
3.9410737686831023,12.998031478331574,-53.95638815354623,41.1986715617846,0.17022566450263205,-3.052883730854183,-1.298730588901472,103.736,0.6686385000022028,3
3.740680054478062,14.72901602768562,-56.43953108111542,41.054870570328625,2.480948021007817,-4.489867090208454,-1.0761165021762131,103.74,0.6726385000021935,3
5.178977182315043,12.321737526872878,-57.82695238881446,41.86332475786759,0.8154072108493465,-3.6982791276633713,1.3457848385730142,103.744,0.6766385000021984,3
7.426594366922381,7.922559981119269,-57.58356364674742,42.68659758934116,-3.087256314665004,-1.403194056278,4.038262080307631,103.748,0.6806385000022033,3
9.504128786410694,4.108639891897481,-55.975832990668856,42.72580089534414,-6.857372815473005,1.183476041168608,5.311160191320973,103.752,0.684638500002194,3
10.977325579996151,1.629619949271743,-53.644530480304205,42.10612109687145,-9.586140342833838,3.3860269849510725,5.131577212047644,103.756,0.6886385000021988,3
11.955168553209168,-0.3759719430036477,-51.368838998566964,41.637381915026225,-11.742928656077368,5.124546864433728,4.770642264978856,103.76,0.6926385000022037,3
12.585152483671742,-2.3783483794161016,-50.032179531575665,41.85888454603403,-13.504653124329572,6.255088070976406,5.216055934639165,103.764,0.6966385000021944,3
12.717649434901002,-3.228978741380896,-50.41106634976389,42.40634121850004,-13.778827227182367,6.218551757490161,6.076329907435973,103.768,0.7006385000021993,3
12.112217618432867,-1.2252149960678427,-52.65910256626366,42.373000509920594,-11.220054022261733,4.546547390852088,6.072606065387689,103.772,0.7046385000022042,3
10.882330130617435,3.6986565157467606,-55.91709086812744,41.2854963518061,-6.111578863758977,1.6538902436037928,4.50829649011234,103.776,0.7086385000021949,3
9.596147493287813,9.163198067327498,-58.60200833859229,39.67923675061757,-0.8686458457426159,-1.095858153768996,2.127930026871034,103.78,0.7126385000021997,3
8.856448175100493,12.00094194393378,-59.35722187292703,38.678877582540245,1.653735242743563,-2.318301525637106,0.48552045424606766,103.784,0.7166385000022046,3
8.78659513707156,10.854284256588357,-57.952750175126326,39.001732008472885,0.4932297055907852,-1.6956403512404785,0.5125494186432334,103.788,0.7206385000021953,3
8.966588940360499,7.205236126309463,-55.37950499754561,40.35511047397481,-2.725338206622319,-0.16512996857796394,1.743037632101137,103.792,0.7246385000022002,3
8.87538638015108,3.9507146780716242,-53.0863282217591,41.75933030490913,-5.333361021064298,0.9472853725280432,2.886972507163546,103.796,0.7286385000022051,3
8.360053055179101,3.060757595490216,-52.056101797911296,42.4018343862826,-5.772880592487849,0.9607947636360463,3.0455425898111996,103.8,0.7326385000021958,3
7.660092897061847,4.534323857583307,-52.453312472157904,42.179254702340835,-4.324364377038912,0.08397982659699316,2.3200255656138427,103.804,0.7366385000022007,3
7.034676835773255,7.252464594709505,-53.91576819280077,41.51513285700066,-2.079559629724995,-1.1647550782513525,1.3578086132937237,103.808,0.7406385000022055,3
6.471843655156224,10.3405155313934,-55.95747184315724,40.81533550723966,0.3314645836533315,-2.5414749622838833,0.5397875279985318,103.812,0.7446385000021962,3
5.820772483507112,13.451754263549532,-58.036456128881404,40.20026887198695,2.7911228151888055,-3.995810487726114,-0.23165181762486198,103.816,0.7486385000022011,3
5.156364447885069,16.003055440425538,-59.44003680412292,39.70241364538645,4.777066395288637,-5.173501019448072,-1.025362105414677,103.82,0.7526385000021918,3
4.884074954444294,16.800653359052447,-59.47519030410311,39.52345802569652,5.02797387707972,-5.3266313262276235,-1.4343385859422177,103.824,0.7566385000021967,3
5.382955328398771,14.985000213383477,-58.06574201576359,39.909792078517704,2.639553908431234,-3.9783449167477607,-0.8732145962198081,103.828,0.7606385000022016,3
6.547115155131897,11.389998781638694,-56.177939263293545,40.74923339966922,-1.4819716629106998,-1.6837549956749058,0.6573185854393542,103.832,0.7646385000021922,3
7.770631702956499,8.48889191540868,-55.3874808657097,41.442576095646125,-4.719883227759873,0.10700452662245458,2.298259852835853,103.836,0.7686385000021971,3
8.47951616567699,8.391035519898,-56.66344113027091,41.37535881221518,-4.874115312789305,0.23476124019924818,3.0568847050708055,103.84,0.772638500002202,3
8.700451759437609,10.621720882749347,-59.36887637435703,40.60756316905604,-2.46344928539893,-0.9801991674161794,2.882789015929166,103.844,0.7766385000021927,3
9.050807937074557,12.104350996609913,-61.525025052727706,40.014166955985644,-0.7262934480563921,-1.8158446503705972,2.8978372614846,103.848,0.7806385000021976,3
10.099103511930753,9.817672647733588,-61.32405343453691,40.56550533532332,-2.8819447983276874,-0.6234183185325832,4.347135056409538,103.852,0.7846385000022025,3
11.714662231763688,3.8163563078161222,-58.64857022781298,42.3400008923857,-9.025781424689228,2.596927298200496,7.206404922336216,103.856,0.7886385000021932,3
13.086137100660878,-2.3932472242442855,-55.20916866022094,44.26200948895753,-15.69538388699402,6.053233856646086,9.896419325194758,103.86,0.792638500002198,3
13.439173272682154,-4.769925276700122,-53.10513943243292,44.94699428222052,-18.76038646899277,7.685619948747177,10.563663674475979,103.864,0.7966385000022029,3
12.768362005340132,-2.360399545849869,-53.07112100837896,43.94746661607355,-17.06774366633792,6.978450572807946,8.804985026345122,103.868,0.8006385000021936,3
11.856944597106638,1.815781343352441,-53.98528156163227,42.21614855113863,-13.418328383669742,5.360378865318018,6.154356588386298,103.872,0.8046385000021985,3
11.554238662603879,3.541540209784317,-54.04381761628246,41.2797806285635,-11.918201017170574,4.822398243481932,4.764060889019416,103.876,0.8086385000022034,3
12.021611889295535,1.241590085150193,-52.45795347102648,41.844375080591035,-14.201900594499286,6.086814457359504,5.465462553129506,103.88,0.8126385000021941,3
12.68970614256993,-2.7624477714739393,-50.08842680920346,43.138143511440255,-18.099457658462327,8.068435827934145,7.054046757195424,103.884,0.816638500002199,3
12.950236646268582,-4.734185583594142,-48.502708332614866,43.63809958140704,-19.950265222687086,9.087135017639893,7.511687893580574,103.888,0.8206385000022038,3
12.856650914332208,-3.2761416685796854,-48.4530201303371,42.52541889327422,-18.259761282927,8.586240470248555,6.020612803988795,103.892,0.8246385000021945,3
13.090420643477389,-0.6903332311986755,-49.25722924013579,40.51444217923203,-15.151397279015539,7.65422107628157,3.8398758513589994,103.896,0.8286385000021994,3
14.194779004105849,-0.6583146683559932,-49.59942817573647,39.2746686737306,-14.255439329243265,7.862645108081489,3.1810893874177846,103.9,0.8326385000022043,3
15.846247492550678,-4.548985134005884,-48.86299366023204,39.96962690200546,-17.129058434614343,9.602711344771764,5.1224514895243765,103.904,0.836638500002195,3
16.949162508889447,-9.963270790132393,-47.65908470320173,42.24173493798028,-21.67823761021907,11.586895227336022,8.522800429347445,103.908,0.8406385000021999,3
16.558235451742924,-12.913736917314717,-47.10237660889388,44.54177683445643,-24.082844755185505,12.029321740865518,10.969624254329233,103.912,0.8446385000022048,3
14.803739828994464,-11.524473459212428,-47.655326499352206,45.467910475198636,-22.369486470867816,10.374275643253155,10.903360481986201,103.916,0.8486385000021954,3
12.924547637079472,-7.723322446629581,-48.7303640640789,44.89546961376917,-18.245111010356272,7.902107713300878,8.976672556915238,103.92,0.8526385000022003,3
12.299218851132654,-5.3674293130886985,-49.39421381540955,43.92465750167205,-15.483554644596074,6.6061862703514755,7.415135149938117,103.924,0.8566385000022052,3
13.286530815039702,-6.618359977078151,-49.37933458303517,43.76719782055749,-16.38400904288879,7.366188577330639,7.961786390074275,103.928,0.8606385000021959,3
14.891164600162995,-9.951328224876852,-49.337618072500085,44.61612843504296,-19.56807594500171,9.099844839670086,10.249884367502617,103.932,0.8646385000022008,3
15.563465574458151,-11.574126171182286,-50.097614474053735,45.49778357720973,-21.11145892938115,9.671678707248898,12.0502717157004,103.936,0.8686385000022057,3
14.458430200504056,-8.880600585671932,-51.720387065332794,45.196377957024424,-17.98161050714573,7.744166238478176,11.183623762143819,103.94,0.8726385000021963,3
12.090204348621837,-2.8049941170416104,-53.33804726208061,43.40700140044857,-10.736167542567456,3.9337161384434087,7.448287034175869,103.944,0.8766385000022012,3
9.850073110270827,2.950768222581061,-53.94895351757203,41.10370804579044,-3.146024208051564,0.2805316809426899,2.909896666038576,103.948,0.8806385000021919,3
8.822633359345147,5.052346063620069,-53.38448827956957,39.79761095744733,0.9066161550402633,-1.4773418317557592,0.28262357587253456,103.952,0.8846385000021968,3
8.899549530707912,3.319689201024178,-52.50728386238021,40.291649792214024,0.6229079134096062,-1.3400068912072918,0.713494316231812,103.956,0.8886385000022017,3
8.901053415845595,0.9063459774303874,-52.46061008887463,41.95220732392347,-1.059075284259757,-1.009851578576646,2.7699302345116106,103.96,0.8926385000021924,3
7.561643589113308,1.8480991669080507,-53.67944659849259,43.10763394970114,0.15936933431619968,-2.4648337856885654,3.4675343441424715,103.964,0.8966385000021972,3
4.553023336311721,7.996689538427842,-55.54426010620363,42.29570324456676,6.479046097870013,-6.339069711136061,0.5588676001633953,103.968,0.9006385000022021,3
0.7419321607164873,17.648343868015196,-56.91344911309924,39.410144894325406,16.193931129845144,-11.392961271441589,-5.6879416683613755,103.972,0.9046385000021928,3
-2.465707053926699,26.737888715037045,-56.98926942622216,35.85561402706252,24.887136437080745,-15.427870055304817,-12.59779264372661,103.976,0.9086385000021977,3
-4.130955109322728,31.57687443662561,-55.78083329344754,33.570766895883814,28.637778743888614,-16.874212113470737,-16.999419560157015,103.98,0.9126385000022026,3
-4.361817737804041,31.148459559044873,-53.907378943626526,33.65379941116513,26.763268418685612,-15.83532434831587,-17.46100635914916,103.984,0.9166385000021933,3
-4.084786673415088,27.451957208485478,-52.08118750086372,35.64352866416624,22.075282694037355,-13.868543977462576,-15.136250414947643,103.988,0.9206385000021982,3
-4.259535123797513,23.815001099495916,-50.75379603005348,38.00162398973005,18.572688735183906,-12.760213451517622,-12.615769219041225,103.992,0.924638500002203,3
-5.161646562019134,22.44644883531858,-50.07195441097101,39.38847558834218,18.40150246003473,-13.241681810581136,-11.76114410012416,103.996,0.9286385000021937,3
-6.233531437660193,22.935703909488076,-49.92823951996959,39.69086194772061,20.360955035806413,-14.540177933461369,-12.28557200192392,104.0,0.9326385000021986,3
-6.541928830343891,22.69240919201634,-49.909131144913026,39.976436485492655,20.97121727237191,-14.993794075189744,-12.195208899434212,104.004,0.9366385000022035,3
-5.458304213514184,18.964415160903584,-49.26117902347632,41.45106995059182,17.18306477150395,-13.224525755150127,-9.654540890858705,104.008,0.9406385000021942,3
-3.0808779627760474,10.985636182461063,-47.16887811843763,44.323896775037525,8.681466970332185,-9.061587874821935,-4.679655971795117,104.012,0.9446385000021991,3
-0.15425536913513743,0.7340636416298456,-43.37328936354747,47.53630178338388,-1.8198828009778063,-3.663893806448193,0.7409559150949188,104.016,0.948638500002204,3
2.400912412843172,-8.223825729288562,-38.67973955836337,49.55307914675304,-10.348961604696573,1.1573000466039483,4.141235286148372,104.02,0.9526385000021946,3
4.0091333969553755,-12.975426997531585,-34.75396270503217,49.52035185340335,-14.15064706497446,3.9548932125017386,4.395658304677796,104.024,0.9566385000021995,3
4.6910346762638016,-13.032480612116375,-33.09080138286362,47.83831636068562,-13.199724534398936,4.408253219343291,2.3854022730862448,104.028,0.9606385000022044,3
4.929083410165633,-10.463113904161979,-33.82656110600521,45.75756350173917,-9.922890656625102,3.427567404722301,0.09835135016520027,104.032,0.9646385000021951,3
5.276196112988516,-8.401018331149194,-35.41534651980161,44.439384231631216,-7.525431352302395,2.5615809863188423,-0.9353651276853613,104.036,0.9686385000022,3
