Fz,FC3,FC5,F3,FC4,FCz,Cz,Time,t_rel,idx
3.277797133355543,17.723195570869144,-49.86748720120248,36.07948912922132,6.025746502851769,-4.003105117833946,-9.235636017261351,116.516,-1.9972294000359199,4
3.6696334515892444,16.497995604534367,-50.670790362600265,36.77898985960125,5.618415780190268,-4.0004591108517475,-7.893785222463093,116.52,-1.9932294000359292,4
4.836036124180696,12.545414027421588,-50.13715737093025,38.12843776455171,2.652582710150077,-2.571364092860383,-5.453949162513432,116.524,-1.9892294000359243,4
6.097318383680727,7.611440194667379,-49.05720939901157,39.97125753678163,-1.6189375602202354,-0.5671584595294359,-2.43671069636847,116.528,-1.9852294000359194,4
6.980531348406302,3.506592218798467,-48.61120823188736,42.01333403438189,-5.682271235132472,1.0855843450371163,0.7074375203960653,116.532,-1.9812294000359287,4
7.593305615558165,1.0215313675424973,-49.38508872912364,43.75818850992509,-8.590445936073822,2.034978961169867,3.567530211001845,116.536,-1.9772294000359238,4
8.446861207949635,-0.2342140699706974,-50.89537585411941,44.63082647186681,-10.247950999156805,2.614333749069575,5.685519494360906,116.54,-1.973229400035919,4
9.908011627651845,-1.164013917866357,-52.02084842096553,44.32307886485627,-11.112568731079397,3.38501972004542,6.681320857357752,116.544,-1.9692294000359283,4
11.784993956527009,-2.355778049442892,-51.971306789815465,43.102961788936014,-11.667555480410478,4.5487393526850575,6.557945221520751,116.548,-1.9652294000359234,4
13.429948309849953,-3.755480869011412,-50.95441670806246,41.766135826207346,-12.121581641823944,5.760545858186095,5.874849224654432,116.552,-1.9612294000359185,4
14.280252829267143,-5.009325237960013,-49.96242577458504,41.185836233391335,-12.54308832354032,6.506893574398337,5.541856699028551,116.556,-1.9572294000359278,4
14.361990320801011,-6.06270573228485,-49.887198296638424,41.78031138447972,-13.195617785511455,6.680735787004239,6.322484322149763,116.56,-1.953229400035923,4
14.295769733898345,-7.3894199458131,-50.778138062160075,43.300517768274105,-14.58982584679152,6.767712969948018,8.393383382644217,116.564,-1.9492294000359323,4
14.778031244775633,-9.57100154542473,-51.908170304041775,45.06500066729549,-17.019572053793233,7.400877383586676,11.254834607601948,116.568,-1.9452294000359274,4
15.988686217802657,-12.60426663831126,-52.53114190979731,46.412916624118644,-19.968328672352637,8.678055065853357,14.024079312686572,116.572,-1.9412294000359225,4
17.464552526647605,-15.693337260721398,-52.54640169950385,47.03938171478103,-22.141508506657846,9.955449800372934,15.921863425081538,116.576,-1.9372294000359318,4
18.57085859125065,-17.92671126157905,-52.398161784974256,47.06068503229117,-22.45614347933125,10.445634355407794,16.70383854693495,116.58,-1.933229400035927,4
19.145873538264592,-19.34858146041093,-52.33836552409418,46.885091854640535,-21.31293799315817,10.139709477312909,16.829210107445252,116.584,-1.929229400035922,4
19.700938080104265,-21.336540026797433,-51.87576093285422,47.01662401676427,-20.862134296360058,10.120611000269815,17.236262158873366,116.588,-1.9252294000359313,4
20.941118481197343,-25.625987725804883,-50.09373536789406,47.83439564079655,-23.590049076982467,11.778546430792133,18.755711617895393,116.592,-1.9212294000359265,4
23.010476799302335,-32.579466850687744,-46.63834807656904,49.36652186787176,-30.094045452716593,15.475732780603593,21.459128932195682,116.596,-1.9172294000359216,4
25.1703842992664,-40.24926648373951,-42.420273515533964,51.178126857789366,-37.97705681906478,19.86999664122188,24.4280890200606,116.6,-1.913229400035931,4
26.2737197761289,-45.36090362799837,-39.23128541514104,52.54505012729851,-43.15650176453163,22.67099398663632,26.258926917607326,116.604,-1.909229400035926,4
25.684283814728808,-45.712025827479614,-38.45629940355691,52.91235076136205,-42.8519773754341,22.356802598798858,26.066865431580904,116.608,-1.9052294000359211,4
23.857385471484218,-42.0660797823892,-39.944873870116595,52.33847587316197,-37.871545254817235,19.44444029075253,24.242197271924308,116.612,-1.9012294000359304,4
22.05966037025323,-37.83974288836212,-42.032271719560654,51.529636877290564,-32.1976634933288,16.200721689371,22.27965916433677,116.616,-1.8972294000359256,4
21.443198717283064,-36.69817799286235,-42.719028024289926,51.36266924641847,-30.10685835091901,14.993840117272102,21.72435628709766,116.62,-1.8932294000359207,4
22.237478500049413,-39.98570462758653,-41.04089693200312,52.255420920073256,-33.16820315769809,16.639888641817272,23.062016655347833,116.624,-1.88922940003593,4
23.69408455398731,-46.04685094356627,-37.57040641141285,53.91360941393496,-39.50820752809325,20.045240310582425,25.47253060456769,116.628,-1.885229400035925,4
24.753282535085493,-51.80882121102166,-33.8029248928913,55.652465830351126,-45.6799571390552,23.27182984386322,27.614125033668333,116.632,-1.8812294000359202,4
24.81728587421306,-55.08494563650739,-31.08431054281468,56.960691451618,-49.272199236140594,24.97474068602988,28.68873740360172,116.636,-1.8772294000359295,4
24.016393774733558,-55.67036155835551,-29.93472048910692,57.773836349613596,-50.05096840687932,25.030540901168468,28.835279428826126,116.64,-1.8732294000359246,4
22.873468420752953,-54.65534439650067,-30.078037127346203,58.258473501371164,-49.08389185467794,24.08458593549768,28.600745520903025,116.644,-1.8692294000359198,4
21.783577299434253,-53.03117598293444,-30.854453468179823,58.42476942719443,-47.18963895118625,22.72374784781775,28.1431738278541,116.648,-1.865229400035929,4
20.780320233794438,-51.022824863495586,-31.573130812463987,58.037680183235445,-44.36120532426519,21.11426219233042,27.02489839086446,116.652,-1.8612294000359242,4
19.694501880126065,-48.509429406258235,-31.70065939030612,56.93207637788774,-40.45963682736424,19.259531396443077,24.783615969471725,116.656,-1.8572294000359193,4
18.441357672495,-45.69351890317503,-31.04718142023447,55.36037206131252,-36.05834288842842,17.35775873511302,21.63955474291741,116.66,-1.8532294000359286,4
17.139151907124567,-43.11846380108482,-29.97087018901177,53.9395131020616,-32.317826329359,15.765613821006301,18.562881489263138,116.664,-1.8492294000359237,4
16.011556253193778,-41.10321027940094,-29.325317935920676,53.190177189842466,-30.021122023801706,14.65413556788412,16.593781228202953,116.668,-1.8452294000359188,4
15.239701979093603,-39.425746740653054,-29.924925831723765,53.11249724650842,-28.90349259943359,13.842583415020297,16.059382531188103,116.672,-1.8412294000359282,4
14.901494507038217,-37.742561356726135,-31.79254986156728,53.2258790007517,-28.05320485930398,13.058960019849652,16.401982549957836,116.676,-1.8372294000359233,4
14.971669209243322,-36.239618353557894,-33.86945897218767,53.03032417494417,-26.917525994684066,12.320971169967086,16.703638766275066,116.68,-1.8332294000359184,4
15.297297758510592,-35.61920587916392,-34.63676558829419,52.428701804418594,-25.776213363240572,11.947708152908078,16.35847711486143,116.684,-1.8292294000359277,4
15.575451302160136,-36.28618551607587,-33.28668029707766,51.72576486657822,-25.207975567952218,12.144567704937788,15.335057507429621,116.688,-1.8252294000359228,4
15.459914160044038,-37.66227221474034,-30.449437853672734,51.28819632435561,-25.28772101845355,12.655680746761202,13.995639855705816,116.692,-1.8212294000359321,4
14.825938702221634,-38.61711562467104,-27.73962143375133,51.285735466281835,-25.586306163641794,12.9763705704304,12.854998483130313,116.696,-1.8172294000359273,4
13.99543211805264,-38.8202405972727,-26.412831255245838,51.77498609624187,-26.070102800893245,12.99988842084213,12.532868018275147,116.7,-1.8132294000359224,4
13.64616953284514,-39.61602743777988,-26.286712954562628,52.935967741684415,-27.80624154231675,13.400909928347001,13.725934731782715,116.704,-1.8092294000359317,4
14.360621620823155,-43.22544139991295,-25.91536427346669,55.06074493985643,-32.38617480867444,15.21155978701386,16.894054134360648,116.708,-1.8052294000359268,4
16.13357232732258,-50.6870725270989,-23.899350322101707,58.18531984945026,-40.31681733105665,18.847620185645322,21.73672781783911,116.712,-1.801229400035922,4
18.278657718559906,-60.395782430347936,-20.174189239338162,61.73350612315872,-49.91245418644415,23.486844090939602,26.983417923472036,116.716,-1.7972294000359312,4
19.875817261489182,-68.80238707095678,-16.12922149417125,64.64699354443206,-57.998750135189084,27.478424456406334,30.929123437989556,116.72,-1.7932294000359263,4
20.42542817844234,-72.9131193634787,-13.469158022739817,66.03408024918785,-62.080929222840886,29.524636192165843,32.479061989263414,116.724,-1.7892294000359215,4
20.169098441834358,-72.4803395610803,-12.855938023501457,65.81057998740326,-62.1384425138858,29.62100572412045,31.874035945109508,116.728,-1.7852294000359308,4
19.81442861881325,-69.94678471084679,-13.524669260413225,64.7306159045459,-60.41923956943133,28.92211665082509,30.423532366507096,116.732,-1.781229400035926,4
19.91494657444592,-68.20436121122988,-14.144118119633065,63.74026521798898,-59.39117040602774,28.663145380970956,29.421292563484833,116.736,-1.777229400035921,4
20.435063094525262,-68.1815068593495,-14.075684300342315,63.22631362717231,-59.67605698936976,29.103244463262342,29.168626964101662,116.74,-1.7732294000359303,4
20.83175103267575,-68.3476359889721,-13.891684261049036,62.83571336678343,-59.758545302613975,29.39351533633118,28.936885816844743,116.744,-1.7692294000359254,4
20.520456612518064,-66.40275072480947,-14.750651590858942,61.99180414640561,-57.59519801565723,28.408471126324596,27.82786844607737,116.748,-1.7652294000359205,4
19.300365779627068,-61.47229673970903,-17.25896687319257,60.566813421302236,-52.559831669134596,25.74891633483209,25.67499974627483,116.752,-1.7612294000359299,4
17.428982531162166,-54.847899798273886,-20.838678951611158,59.042931318565266,-46.00280111635586,22.06660326796542,23.150862748548086,116.756,-1.757229400035925,4
15.390868689571843,-48.82542801237216,-24.093963852061314,58.025582446605604,-40.1055114843414,18.546034597894607,21.06241761470282,116.76,-1.75322940003592,4
13.636233404676688,-44.9369968639834,-25.783076413850175,57.62784123971499,-36.25697877961686,16.107473862927414,19.605503550131353,116.764,-1.7492294000359294,4
12.485162419721767,-43.2170460154131,-25.562333853876435,57.37108909183151,-34.43528664934718,15.015899622159576,18.342515384923903,116.768,-1.7452294000359245,4
12.1504789238151,-42.92309454129575,-23.983167746530526,56.72073087703124,-33.93978446532787,15.0810603672342,16.893776585073617,116.772,-1.7412294000359196,4
12.713995266570697,-43.684066107354745,-21.906668420862918,55.721811813517704,-34.49634866183192,16.06943760606438,15.58183850389683,116.776,-1.737229400035929,4
14.010913196756709,-45.793396517409874,-19.91462986814981,55.070331983968785,-36.52149486281851,17.853588251002236,15.294687816650487,116.78,-1.733229400035924,4
15.571182488749873,-49.42980628537037,-18.148550478704653,55.491224711601234,-40.31781124625483,20.214002631930775,16.61975817804796,116.784,-1.7292294000359192,4
16.788830925981685,-53.795064159875814,-16.543505528748945,56.982192893176844,-45.13799060314459,22.63093966259348,19.074596810017336,116.788,-1.7252294000359285,4
17.285041205711053,-57.26370679807102,-15.111660451969628,58.65485753406914,-49.234660820689406,24.421268283483645,21.248861047466235,116.792,-1.7212294000359236,4
17.196466815783403,-58.56776429445776,-14.005381059356507,59.37830039160808,-51.038804557685246,25.18685588871091,21.850326815397118,116.796,-1.7172294000359187,4
17.109487362801193,-57.90124870637921,-13.388664730641572,58.6874952676694,-50.435766070274596,25.155624559944258,20.773072316880523,116.8,-1.713229400035928,4
17.62379887796292,-56.79179778959599,-13.330783137489297,57.155111358533645,-48.89083596802172,25.021427080048785,19.213079578561665,116.804,-1.7092294000359232,4
18.85250547661244,-56.72750394778542,-13.845729934208935,55.89412806655878,-48.17873951184702,25.33507594707402,18.67026390359614,116.808,-1.7052294000359183,4
20.2634143979371,-57.76187676419762,-14.979318982926603,55.63449769592949,-48.7961896539232,25.96088350549027,19.67858980169059,116.812,-1.7012294000359276,4
21.030890693468827,-58.44401287223979,-16.76117134347513,56.18931506528496,-49.533973473299866,26.136565229371723,21.38238670088927,116.816,-1.6972294000359227,4
20.670950039069474,-57.25525112012773,-18.997329404831103,56.75739103056765,-48.70747631525789,25.18083227845591,22.350883492123682,116.82,-1.693229400035932,4
19.48646775325985,-54.31423681883565,-21.1151341249326,56.74572121856217,-46.01146355852201,23.28424731897681,21.924398211491443,116.824,-1.6892294000359271,4
18.458116256781835,-51.75386365751557,-22.315093082817942,56.340307293571236,-43.275678417923096,21.650122071475558,20.89608953642799,116.828,-1.6852294000359223,4
18.61391688824238,-52.26318539878033,-22.04007800970617,56.31473747120813,-43.2644393521685,21.73577606667659,20.903272334527916,116.832,-1.6812294000359316,4
20.30542640247366,-56.904339492264356,-20.439208700250674,57.282942276497266,-47.39733267291721,24.11756823235361,23.034943954107735,116.836,-1.6772294000359267,4
22.91183551584252,-64.02965491145085,-18.409113333390575,59.10283928529424,-54.32784201467247,27.899432980028656,26.852502478348494,116.84,-1.6732294000359218,4
25.201011939033744,-70.27017960631466,-17.0813536655295,60.96869807377044,-60.686484716501276,31.211424245116387,30.656883730424877,116.844,-1.6692294000359311,4
26.103988044864128,-72.85203316100132,-17.08399490658701,62.07523839436157,-63.46148295174613,32.467630851572366,32.75065372853639,116.848,-1.6652294000359262,4
25.3578982402466,-71.39717664367754,-18.13670281943271,62.22321729543185,-62.06567746618612,31.409294354463082,32.60914703915487,116.852,-1.6612294000359213,4
23.575413112539646,-67.82750512950506,-19.307878885538823,61.834148896110186,-58.41464278236268,29.122821289851185,31.017643498905567,116.856,-1.6572294000359307,4
21.73298457517368,-64.59655809682926,-19.73784452486214,61.4262586161823,-55.081881455165615,27.073363169230642,29.183677716270378,116.86,-1.6532294000359258,4
20.498673931946573,-62.81515157900151,-19.258993279818714,61.09886437106802,-53.23003535047953,25.99777034614805,27.708871560137084,116.864,-1.649229400035921,4
19.904377791638897,-61.777273576863,-18.447994772020408,60.516671795625385,-52.079115255478634,25.5560224367133,26.327311580384468,116.868,-1.6452294000359302,4
19.5471097415553,-60.06094727054466,-18.130525219704456,59.36606504073754,-50.16631850419889,24.91992486073275,24.524691351422433,116.872,-1.6412294000359253,4
19.057359087683693,-57.01763635603523,-18.790798698418538,57.79657484825175,-47.02042833871128,23.65194625657277,22.322983200656818,116.876,-1.6372294000359204,4
18.38483097988115,-53.27435672920323,-20.34655574776152,56.3981893327837,-43.622618425036784,22.042367182246544,20.418143407090135,116.88,-1.6332294000359298,4
17.67828350049204,-49.9340783413257,-22.369379099364092,55.73349743456912,-41.31117154065564,20.662219374365705,19.540628671918594,116.884,-1.6292294000359249,4
16.956232236084286,-47.41131256218806,-24.44537853728601,55.86952287992985,-40.32044336353841,19.66417926564196,19.687200081356423,116.888,-1.62522940003592,4
15.975438680030312,-45.10760674709859,-26.332527346831114,56.336567708318825,-39.460210818558664,18.583728162857422,20.004610361281802,116.892,-1.6212294000359293,4
14.492896642938918,-42.22406251942214,-27.860461491091126,56.53013540952539,-37.292022241925096,16.868242434749337,19.485271765224738,116.896,-1.6172294000359244,4
12.680547166123558,-38.850080078125856,-28.80264860398335,56.18236077356283,-33.69114364773689,14.616007862565283,17.864956527594455,116.9,-1.6132294000359195,4
11.226990203258607,-36.184151647088655,-28.941287727852558,55.51330598658801,-30.292159575119232,12.763629923436813,15.913672836777057,116.904,-1.6092294000359288,4
10.90671871871916,-35.58520687983262,-28.287927472277513,54.99370912734559,-29.330331075305846,12.452788292453777,14.850249288897462,116.908,-1.605229400035924,4
11.918219684429495,-37.28938207456614,-27.21884227501835,54.969585180376704,-31.82653081543788,14.07174223220532,15.375208068010865,116.912,-1.601229400035919,4
13.586847578310838,-39.96693336525414,-26.351271239520155,55.43952004469798,-36.61742108600512,16.792867791187298,17.116390276583324,116.916,-1.5972294000359284,4
14.768614137760796,-41.53394293407142,-26.23589804608795,56.07476161266395,-40.98345702057918,19.02232972168699,18.887592528626822,116.92,-1.5932294000359235,4
14.672812561838656,-40.52023529940193,-27.099976646075195,56.38161652874036,-42.3299352946704,19.41961480274259,19.47610334682591,116.924,-1.5892294000359186,4
13.41891761317834,-36.87656108008762,-28.796489433211786,55.89170044848819,-39.66524663605769,17.707518568461744,18.32016051922885,116.928,-1.585229400035928,4
11.863516916680362,-31.71843766835689,-30.91789479406337,54.35561243796888,-33.974826791293296,14.725933056992252,15.666096842072076,116.932,-1.581229400035923,4
10.890537861410515,-26.485384813412633,-32.93969820047408,51.93385718415063,-27.52065027140046,11.820918023171096,12.300420216554954,116.936,-1.5772294000359182,4
10.823833015261885,-22.370590069546452,-34.33372614028803,49.28700655055704,-22.744800532989373,10.117414354372661,9.220862822632276,116.94,-1.5732294000359275,4
11.439466087189766,-20.343694014911964,-34.69281350277855,47.41379431932154,-21.408236189139622,10.148742947729206,7.442740352589616,116.944,-1.5692294000359226,4
12.42004902340853,-21.295277302292412,-33.89128527886236,47.21272574378676,-24.14505829537233,11.883697637290961,7.815148472040845,116.948,-1.565229400035932,4
13.670145312987692,-25.679552985292485,-32.20186784261992,48.982266351126526,-30.313263003894026,14.873828494111837,10.668443673580379,116.952,-1.561229400035927,4
15.145294676184001,-32.72273835370499,-30.253411678236116,52.19280640354539,-38.09526048210905,18.31877951026155,15.414529924059211,116.956,-1.5572294000359221,4
16.473471066317707,-40.05292741301583,-28.809958101204668,55.71041256564343,-44.98188916230654,21.147592047769532,20.51329899679637,116.96,-1.5532294000359315,4
16.953844467707896,-44.55362837961559,-28.472895002980483,58.34058156501613,-48.695657586466965,22.33874761524822,24.089007321090804,116.964,-1.5492294000359266,4
16.11887130508968,-44.22028219206493,-29.426760808512356,59.360700237650306,-48.24823926569566,21.467625218572397,24.94808550496056,116.968,-1.5452294000359217,4
14.347535367041814,-39.71428196390522,-31.293296406880064,58.7745999835682,-44.53837760093612,19.11712990509356,23.306690716017844,116.972,-1.541229400035931,4
12.815236506223506,-34.26311700945175,-33.15367386160632,57.24152089719994,-40.02998395938959,16.729192790138644,20.660824636885593,116.976,-1.5372294000359261,4
12.665401015201176,-31.74265848603288,-33.84882628804638,55.78143702669748,-37.578708150994665,15.851507817310658,18.871847065864603,116.98,-1.5332294000359212,4
14.107068840090076,-34.22711733440468,-32.59362763697232,55.360260472198796,-39.008571138373725,17.236213615983768,19.125773181478106,116.984,-1.5292294000359306,4
16.290700692385396,-40.74254077683327,-29.6372334045067,56.43828184964897,-44.190981029309526,20.40857307652738,21.43319959208776,116.988,-1.5252294000359257,4
18.072724136667745,-48.02831688707799,-26.411312873492346,58.646814629775406,-51.0843770706208,23.982654146213584,24.821813918534428,116.992,-1.5212294000359208,4
18.899376055320147,-52.624410594885,-24.771638015233997,60.85143982311108,-56.69922549041822,26.460542398245074,27.883915823860942,116.996,-1.51722940003593,4
18.96666921292715,-52.78937547290567,-25.65879151412912,61.738203738201896,-58.540749709400615,26.972975621290644,29.311068124015733,117.0,-1.5132294000359252,4
18.635664898794314,-49.13473989086539,-28.214378125285915,60.6707559845902,-55.87273095408542,25.57750996662331,28.337918120228917,117.004,-1.5092294000359203,4
17.893673985905348,-43.902018862679945,-30.276579200428458,58.214294395002476,-50.160702133451714,23.091960452089502,25.139371363562805,117.008,-1.5052294000359296,4
16.533399236769988,-39.58733679790256,-30.079213028549695,55.82333588773519,-44.34380727705671,20.66309429142261,20.9905276875812,117.012,-1.5012294000359248,4
14.795832689735965,-37.710509869338644,-27.78251407253491,54.808731205363266,-41.17715257431737,19.262644150068922,17.80296847102277,117.016,-1.4972294000359199,4
13.566998562499576,-38.20457950417695,-25.39985207761353,55.35682308472011,-41.55656784677359,19.24639199670476,16.990785784639623,117.02,-1.4932294000359292,4
13.662703830836149,-39.60212715404367,-25.03704292264048,56.432030255465435,-43.97683270067463,20.155363443839416,18.365905247217807,117.024,-1.4892294000359243,4
14.857345777718365,-39.977793824069835,-26.97288335715673,56.69433272711053,-45.67412503254064,20.966655412737392,20.106468296200926,117.028,-1.4852294000359194,4
15.822448355523093,-38.26964527505261,-29.38111232682054,55.6712125011604,-44.7841893245824,20.794787838508196,20.146498231263873,117.032,-1.4812294000359287,4
15.31658359183766,-35.196552855742176,-30.013511887093525,54.16046355017198,-41.915660796050794,19.639004804686373,18.009673592190474,117.036,-1.4772294000359238,4
13.572586939795073,-32.97850170644405,-28.279830590187917,53.49814821552686,-39.801715131876435,18.55356785275075,15.435744420435753,117.04,-1.473229400035919,4
12.391825883784097,-33.79800835977625,-25.740444530869755,54.33974715573243,-41.15196053328328,18.944684078041558,15.014156306371198,117.044,-1.4692294000359283,4
13.612468221384031,-38.02174249090014,-24.558242271414475,56.04525815736468,-46.360863995911096,21.426756231318148,17.85636614815886,117.048,-1.4652294000359234,4
17.295561560734377,-43.6429740716781,-25.454668882904016,57.21347336830104,-52.97402532818084,25.163379664726893,22.399253689000666,117.052,-1.4612294000359185,4
21.415339705728112,-47.579335961546164,-27.173953892791342,56.87682804467023,-57.42663713731751,28.32758137182443,25.56017786943224,117.056,-1.4572294000359278,4
23.47228946890946,-47.90418512856356,-27.90755793469164,55.295331742894454,-57.668210450623484,29.392364529145638,25.319967772929132,117.06,-1.453229400035923,4
22.5709171330371,-45.186489169399344,-27.154432901857515,53.68239923891414,-54.532677142737526,28.211416345105665,22.40886649693747,117.064,-1.4492294000359323,4
20.01838028091495,-41.798986343724636,-26.116980486515597,53.161456554353606,-50.794599298688865,25.992823163662173,19.537906129998348,117.068,-1.4452294000359274,4
17.93362745418039,-39.81308575079808,-26.316347257549115,53.894677598961295,-48.823633787685495,24.221110285211687,18.903651457679324,117.072,-1.4412294000359225,4
17.28358906671387,-39.34479619773246,-27.9714403601666,55.095907141507496,-48.867377846395904,23.48845961792439,20.31565857814922,117.076,-1.4372294000359318,4
17.25083372564287,-38.77592346648239,-29.872059693975373,55.81325039410383,-49.30917290353642,23.22652569927079,21.666546244976697,117.08,-1.433229400035927,4
16.428306174967695,-36.54120149878566,-30.824578913835552,55.72482735242933,-48.45111336969564,22.476061757889365,21.18769849703046,117.084,-1.429229400035922,4
14.497531871769581,-32.75674654018758,-31.042780706929587,55.27371278496262,-46.105558472585685,20.902280580260513,19.23156048271016,117.088,-1.4252294000359313,4
12.635610671633808,-29.170384873389818,-31.92207141924501,55.1183538138696,-43.611755665587864,19.10737171723163,17.84287575548768,117.092,-1.4212294000359265,4
12.269120873901796,-27.509979328323215,-34.397892628201355,55.46140580742254,-42.40792698028681,18.00345284013339,18.58181941535367,117.096,-1.4172294000359216,4
13.495964326957965,-27.7839949055892,-37.66059175754164,55.85190816703239,-42.55939750611462,17.885944860924283,20.770166814330835,117.1,-1.413229400035931,4
14.806466451902807,-28.106798279923538,-39.68927682051997,55.58495714787906,-42.58410948917271,18.08518452353448,21.903576466299896,117.104,-1.409229400035926,4
14.402438449088418,-26.22430176820929,-39.17687196475042,54.314014815244015,-40.69694651103069,17.507199873492844,19.874467106165138,117.108,-1.4052294000359211,4
11.83327403537427,-21.416243201775103,-36.9197992744597,52.36232415212432,-36.36301455919427,15.569729184992974,14.933729662937509,117.112,-1.4012294000359304,4
8.403716923404067,-15.171437412847279,-35.21220067185576,50.5122842979675,-30.849577193581894,12.722390336061304,9.594823720852068,117.116,-1.3972294000359256,4
6.037109824489392,-10.134220951348315,-35.75657158735695,49.471507280288,-26.36756652818425,10.14088766255903,6.608854299553093,117.12,-1.3932294000359207,4
5.720663180743205,-8.263607158075374,-38.08186240710428,49.42990838371836,-24.554592514843634,8.894918686662919,6.854571828898837,117.124,-1.38922940003593,4
6.933139161129893,-9.691930480501442,-39.97046457329397,50.013282211363546,-25.511126436404588,9.282606066970592,8.944494050735983,117.128,-1.385229400035925,4
8.41306880759951,-13.050578453812722,-39.45747751120281,50.63007134265052,-28.060867046700064,10.811721100307484,10.71406176115811,117.132,-1.3812294000359202,4
9.376155560512903,-16.77026745810422,-36.50957595365889,50.93180591626596,-30.884041887183233,12.734179869837412,11.12174395233009,117.136,-1.3772294000359295,4
10.016574494605724,-20.159101811397136,-32.89146911263129,51.04371448501102,-33.517025761346396,14.615979533210272,10.891328172547842,117.14,-1.3732294000359246,4
10.962869733017591,-23.432856317377716,-30.494563610032227,51.401089983739034,-36.415071502804814,16.477881289709877,11.500650423748276,117.144,-1.3692294000359198,4
12.387759671359182,-26.887084679743506,-29.775736142862964,52.32288144278819,-40.11788235782425,18.4723077907604,13.597754275522965,117.148,-1.365229400035929,4
13.707348617107204,-30.1268561388537,-29.687290385662017,53.65661065008714,-44.318538285871696,20.467419923243536,16.30130561994954,117.152,-1.3612294000359242,4
14.123386454404963,-32.105958067340104,-28.976639165216298,54.78169829732299,-47.68717759784872,21.948075333118105,17.91661474555907,117.156,-1.3572294000359193,4
13.408916545938014,-31.89701805425449,-27.508061846768747,54.98456132931321,-48.622542013905466,22.316030185120884,17.318113854556596,117.16,-1.3532294000359286,4
12.138156409445074,-29.422044343398937,-26.39794018817831,53.926818497762,-46.30181636299835,21.29987984950061,14.756946137867915,117.164,-1.3492294000359237,4
11.146716737500574,-25.453929836029968,-26.967075563528606,51.85605906011889,-41.174701423553344,19.109329164091623,11.483601861400832,117.168,-1.3452294000359188,4
10.764974564072858,-20.939920364957015,-29.56958346773128,49.42061567604984,-34.57608889334561,16.237386536942342,8.662615948968876,117.172,-1.3412294000359282,4
10.570321919178017,-16.355825683777383,-33.3368003238007,47.265350750190215,-27.898957205685328,13.147786013995322,6.60812452989987,117.176,-1.3372294000359233,4
9.88946233764664,-11.725651549498318,-36.947054131688965,45.733728123096235,-22.059208857904892,10.152491596780205,4.956232481569091,117.18,-1.3332294000359184,4
8.560002093992129,-7.218526013988768,-39.64006978468179,44.86523658982394,-17.566745020037157,7.53391872692555,3.466183407966104,117.184,-1.3292294000359277,4
7.212363999960551,-3.6043074837438565,-41.59959562631501,44.5982935193671,-14.861247824191356,5.677000495735556,2.577492919187036,117.188,-1.3252294000359228,4
6.782148152264972,-1.9699118700235536,-43.484099627251496,44.92878219222295,-14.358527242923993,4.965617323439693,3.1359910722714526,117.192,-1.3212294000359321,4
7.685676700439486,-2.8695725595451327,-45.624555805220105,45.86704390155232,-16.077791139620196,5.484582449206902,5.534616453186753,117.196,-1.3172294000359273,4
9.4158936703337,-5.725212969657911,-47.61023271991272,47.27057251690136,-19.29620458413667,6.841124096210988,9.104059990261282,117.2,-1.3132294000359224,4
10.941233655720774,-9.132715899929313,-48.571708139293044,48.769637483141985,-22.758647334000173,8.363618231367655,12.388582002992132,117.204,-1.3092294000359317,4
11.560868985483822,-11.889916160192303,-47.86901619922743,49.91701693046983,-25.437953747368958,9.575574331598215,14.143425859236855,117.208,-1.3052294000359268,4
11.45643976021253,-13.855998155148473,-45.602641511798346,50.46976560819586,-27.231958086981656,10.537227258862671,14.227165126657422,117.212,-1.301229400035922,4
11.45961165013757,-15.872085585769929,-42.57053595536282,50.56408899654912,-28.936944497219972,11.721195216432616,13.63467017523344,117.216,-1.2972294000359312,4
12.26209082017935,-18.807477666382212,-39.77289859315183,50.61147704005936,-31.43680056963414,13.495221376009088,13.648387592920383,117.22,-1.2932294000359263,4
13.778252259766436,-22.56119933259818,-37.907475090793604,50.97091763078037,-34.74588518549558,15.645594078586942,14.81979563975363,117.224,-1.2892294000359215,4
15.20255521011811,-25.86577434149782,-37.233145893364934,51.64804388081648,-37.707225167121166,17.355584671712975,16.599961639336374,117.228,-1.2852294000359308,4
15.668801059804379,-27.05428166047991,-37.79110096591181,52.27279607022505,-38.644492162707635,17.682086078567444,17.86619158050249,117.232,-1.281229400035926,4
14.91322676239384,-25.201443834558848,-39.62791269305301,52.39963083551229,-36.530689513476595,16.184681127228068,17.862507315954264,117.236,-1.277229400035921,4
13.402627098953397,-20.820841450000966,-42.6992225340247,51.90835379431777,-31.838474369492832,13.262429339087335,16.785128121160007,117.24,-1.2732294000359303,4
11.899005819468053,-15.658046730851213,-46.52970393289258,51.16750867580587,-26.429859414873043,9.973728403947241,15.577367179395681,117.244,-1.2692294000359254,4
10.892362313385966,-11.709328860139703,-50.069242502814824,50.77367815657103,-22.466995148378466,7.451081278507031,15.128444762868988,117.248,-1.2652294000359205,4
10.35784771371824,-10.046969301588115,-52.09853491261854,51.01994674980133,-20.99740461980743,6.260830218175517,15.504284152319022,117.252,-1.2612294000359299,4
9.944750654596765,-10.171359735697814,-52.004194211576824,51.521292740041886,-21.188799183250577,6.100679992754993,15.7976297431316,117.256,-1.257229400035925,4
9.354157166032925,-10.380019632582671,-50.265702086926254,51.37699353764217,-20.889878561624194,6.062393674433897,14.74205590302417,117.26,-1.25322940003592,4
8.591362539500793,-9.052288670427794,-48.12002837086003,49.8486917224964,-18.310359753368406,5.348444919220649,11.694177613438404,117.264,-1.2492294000359294,4
7.952158462777589,-6.026798176768802,-46.591922713216576,47.061623050447935,-13.648415072136473,3.9649191134223347,7.288435335474013,117.268,-1.2452294000359245,4
7.798915018368961,-2.9406327389067943,-45.742320448574034,44.11309397864783,-9.253477165852123,2.8031372427409833,3.2212841135751984,117.272,-1.2412294000359196,4
8.270202546162759,-1.9958902857415157,-44.87602011427958,42.383455924783384,-7.871163459686408,2.8971068791795185,1.192308509581861,117.276,-1.237229400035929,4
9.081879869689248,-3.9240856472102714,-43.550079178379605,42.51550834415502,-10.162372680221955,4.352411307163,1.6867379848045796,117.28,-1.233229400035924,4
9.57179740494859,-6.887495288804327,-42.364068598670116,43.887516070140755,-13.641888660007814,5.902833150524086,3.5313059218688334,117.284,-1.2292294000359192,4
9.06047948814909,-7.5979844084441845,-42.608348264543636,45.07593600655614,-14.32514224567646,5.705830933480341,4.689228490478709,117.288,-1.2252294000359285,4
7.382605645654854,-4.096548702565703,-44.93735417794807,44.99458983623375,-10.091652810113942,2.935081182988663,3.813279025750485,117.292,-1.2212294000359236,4
5.206122924933706,2.083775944080168,-48.316342531368086,43.78772700050441,-2.9764097243846313,-1.159574593894779,1.3747009801292431,117.296,-1.2172294000359187,4
3.77252183236702,6.508896899807447,-50.42705291102581,42.71453239291659,1.872732903512727,-3.83941360008791,-0.602217517490034,117.3,-1.213229400035928,4
4.094935897422113,5.099758608156026,-49.418570659991474,43.10328749084576,0.08894598408916755,-2.881279973605351,-0.08707734691622313,117.304,-1.2092294000359232,4
6.171250426256255,-2.5172058192482094,-45.5286731011508,45.254900437236046,-8.309633404402925,1.5895835875776587,3.339777873731994,117.308,-1.2052294000359183,4
8.895507165953656,-12.502617429697198,-41.047636660906115,48.216785822977805,-18.77142604291475,7.071715475431076,8.137671669155552,117.312,-1.2012294000359276,4
10.840722729302858,-19.730808665047704,-38.53373863079927,50.578932543592806,-25.778750882911748,10.607799553799452,12.015843352063637,117.316,-1.1972294000359227,4
11.314435093361006,-21.67716091953646,-38.81927184039033,51.555386260842035,-27.06733722691269,11.039811513249049,13.65413711938741,117.32,-1.193229400035932,4
10.781839264126589,-19.881530904313845,-40.58480786874882,51.41109566590921,-24.81256958845971,9.628050116125326,13.457923315361253,117.324,-1.1892294000359271,4
10.28094599645936,-17.823013506188854,-41.83081619892691,50.94373131318222,-22.890894924481795,8.541973420977975,12.778073898978027,117.328,-1.1852294000359223,4
10.386913726895244,-17.376996792647578,-41.79645099055668,50.60688332887303,-22.97754239803024,8.712395482860327,12.444797642605913,117.332,-1.1812294000359316,4
10.72515643711262,-17.290021385141223,-41.493304460535086,50.14114944801192,-23.25842916476664,9.115089882336962,12.060359242981473,117.336,-1.1772294000359267,4
10.504948360047512,-15.045639939452958,-42.421923118988914,49.02593146791103,-20.889792967564798,8.127284031541063,10.699192166507103,117.34,-1.1732294000359218,4
9.5185474694936,-10.098255811313269,-44.84164225605105,47.24031807887082,-15.587907175792456,5.525188530384863,8.243751164407538,117.344,-1.1692294000359311,4
8.543600120033043,-5.076079224689813,-47.375678115060175,45.53077140993813,-10.581685226354683,3.027845585376181,5.931225450757342,117.348,-1.1652294000359262,4
8.652631788671885,-3.592010341621209,-48.346698726298946,44.88873139323024,-9.798656529023267,2.74101594758329,5.454986467458024,117.352,-1.1612294000359213,4
10.055187498818023,-6.742282583270959,-47.46421463485305,45.72314450346864,-13.985537525426812,5.0014974089362845,7.412205332327891,117.356,-1.1572294000359307,4
11.649048892604432,-11.764171157625116,-46.13313811993262,47.49955674876327,-19.638740783959545,7.802601972158227,10.584842447991365,117.36,-1.1532294000359258,4
11.82941479887701,-14.238927333027478,-46.081156486946135,49.15005915389618,-21.901920261541335,8.460913447578351,12.781616681163424,117.364,-1.149229400035921,4
9.87000669557622,-11.740014202969817,-47.73523547775659,49.829208420803745,-18.665662928326267,5.9524415179613515,12.489255974711364,117.368,-1.1452294000359302,4
6.575223036134139,-5.452355936200557,-50.01318741453852,49.32789848246247,-11.934023112208658,1.6579737757240693,9.838471168627096,117.372,-1.1412294000359253,4
3.563066354976021,1.5939964693549618,-51.681714042368384,47.88509804425155,-5.3100262957278535,-2.1571090375920243,6.106688507105761,117.376,-1.1372294000359204,4
1.859380611642864,7.603798534321048,-52.752162773999984,45.770902136620165,-0.3743026297574042,-4.5262532492866,2.4186373704599524,117.38,-1.1332294000359298,4
1.1571042943643506,13.126920185739507,-54.33102925860582,43.18058410944836,4.232336838288049,-6.380633193673169,-0.985282975561253,117.384,-1.1292294000359249,4
0.42877618499230713,19.16274042525629,-57.02128728847915,40.5254615424442,10.15226311560415,-8.989460861987832,-4.258493117829935,117.388,-1.12522940003592,4
-0.7769006249963872,24.56899475599532,-59.63830956019262,38.65423434711458,16.10790570774801,-11.96513927254178,-6.95078535312709,117.392,-1.1212294000359293,4
-1.7139373909815654,25.984472434091217,-59.84837233623711,38.52462517109616,17.948887700168918,-13.096142241711076,-7.799533336426526,117.396,-1.1172294000359244,4
-1.171091670508533,20.88217793062413,-56.399083755914205,40.431930284232905,12.456768986956366,-10.430743119059532,-5.769958656331099,117.4,-1.1132294000359195,4
1.1461118403743404,10.897787608506952,-50.8265773624974,43.48438795786671,1.344193642461566,-4.642260850447345,-1.4036428362647924,117.404,-1.1092294000359288,4
3.9819172810802517,1.8635473280190529,-46.78475754618517,45.94321245367053,-8.756255267725972,0.7844832623755869,2.967852488765737,117.408,-1.105229400035924,4
5.350292367681992,-0.0746417479932816,-47.32237103233423,46.31230119280097,-10.896917351556569,2.0152242297690615,4.616112341632072,117.412,-1.101229400035919,4
4.114794187499635,6.901904433931859,-52.44185192019824,44.352344645122294,-3.1859920064353586,-2.105257858873707,2.3640585189535326,117.416,-1.0972294000359284,4
0.9086586191032145,18.91625045126035,-59.11400899039507,41.20530580982443,9.770330045152564,-9.142639960101603,-2.5438959748438443,117.42,-1.0932294000359235,4
-2.3905532331673984,29.4090816449633,-63.70510493920701,38.55804288747626,20.51377817085173,-15.029854622926328,-7.3553899079905225,117.424,-1.0892294000359186,4
-4.08577050050058,33.77815032815378,-64.62346985821533,37.55411731441407,24.131865878113917,-17.069410961583877,-9.685482200381943,117.428,-1.085229400035928,4
-3.7142632151959054,31.765793275827285,-62.947329362547826,38.2732802015913,20.877296337774663,-15.410786170843306,-8.84399106660617,117.432,-1.081229400035923,4
-1.9703064829241788,26.19104450025642,-60.80549564563944,40.00427717065067,14.4600640630899,-12.085144529001369,-5.794439076431957,117.436,-1.0772294000359182,4
0.14183259335483983,20.016684281543935,-59.32587372708383,41.86734992019453,8.432386021878067,-8.958915660487722,-2.173463429399791,117.44,-1.0732294000359275,4
1.9844593689426089,14.71869256925303,-58.10275544072949,43.21950761016258,4.193462260104164,-6.640988066856855,0.6276216991239967,117.444,-1.0692294000359226,4
3.2959258415990638,10.872249906959084,-56.39503535831393,43.69869995462043,1.7311590973742772,-5.001784887680688,1.7987854454417758,117.448,-1.065229400035932,4
3.879768379481597,9.298164191725006,-54.51094536576493,43.18205046809259,1.206969680560472,-4.18293013188658,1.1269227777918651,117.452,-1.061229400035927,4
3.5944025169627984,10.82097069151546,-53.79760183017964,41.88923560727963,3.06940334867939,-4.680623577894793,-0.895786756362811,117.456,-1.0572294000359221,4
2.7241053841129093,14.778677422084467,-55.24011058655447,40.48258395745968,6.669614315835091,-6.425818051011276,-2.9890524419263707,117.46,-1.0532294000359315,4
2.163602825498876,18.341969396404636,-58.1741489327249,39.83274097612502,9.505050146107678,-8.135505193323025,-3.533709218088245,117.464,-1.0492294000359266,4
2.9165203998962594,18.136829384370582,-60.51429994484346,40.428442595332086,8.690698920473851,-8.015811240216433,-1.6423801150128678,117.468,-1.0452294000359217,4
5.182669173816093,13.120068615006689,-60.377731944417974,41.897956534450955,3.622413976589595,-5.365243375268725,1.919867019823394,117.472,-1.041229400035931,4
7.929163660570122,5.925555268584734,-57.620153021369546,43.18144021426124,-2.9362684282166835,-1.4669909512999844,4.987253257470133,117.476,-1.0372294000359261,4
9.537641742252152,1.0320076023577092,-53.91814799566441,43.351557560896715,-6.844454347955083,1.2934803291413817,5.5479151089715595,117.48,-1.0332294000359212,4
9.09923529440911,1.1350565527786132,-51.41357152901428,42.41237337973221,-6.056410684323968,1.3976004373478328,3.425716549070493,117.484,-1.0292294000359306,4
7.212712695621499,4.976866678173575,-51.17444287603449,41.322372592729195,-2.311778832429529,-0.5763379619102068,0.5506077038499757,117.488,-1.0252294000359257,4
5.5140680742371115,8.612886679217477,-52.69995027208975,41.15984605039322,0.6007986629535456,-2.6043012827132785,-0.5833479119982917,117.492,-1.0212294000359208,4
5.326986421558292,8.864001319597625,-54.60922326798658,42.17178344133836,0.30152151086265244,-3.061868295068157,1.0067988696978238,117.496,-1.01722940003593,4
6.6503368948507235,5.699533473235608,-55.6684650856455,43.60094163135788,-2.3755575055087332,-1.9600990682785102,4.053309659988547,117.5,-1.0132294000359252,4
8.369869638134103,1.4826955083077236,-55.299769593076,44.467556441138704,-4.872774003835004,-0.47345786814501417,6.325879877475509,117.504,-1.0092294000359203,4
9.411145279188316,-1.847847999166142,-53.46443664770507,44.55589416169942,-5.968720944874174,0.57342001082614,6.740546140031529,117.508,-1.0052294000359296,4
9.681601276084841,-4.642085865891269,-50.418018757342,44.63013183429902,-7.119699697891913,1.5856594687026488,6.2824117420386925,117.512,-1.0012294000359248,4
9.916819278783704,-8.578178928676724,-46.71806290775573,45.63471823578541,-10.629682437178541,3.519239061154264,6.855147697887641,117.516,-0.9972294000359199,4
10.660633914583931,-14.019309953694341,-43.31827159970918,47.63985195137258,-16.550160275393992,6.410491665056857,9.176764297784164,117.52,-0.9932294000359292,4
11.463860807394767,-18.636777777317807,-41.32730020323517,49.591275503492035,-21.657593418923188,8.762750968697915,11.803784119891464,117.524,-0.9892294000359243,4
11.155856885257982,-19.021318952955095,-41.36562144748627,50.18826773206614,-21.885198135914056,8.606071929127436,12.32194198990388,117.528,-0.9852294000359194,4
8.973719403906841,-13.95524802059664,-43.01087667389584,49.117802480235206,-16.119358367325873,5.33813736959355,9.655823808082772,117.532,-0.9812294000359287,4
5.474566502533784,-6.176228941817666,-44.923195088684786,47.4689494919224,-7.741268092291436,0.5831424388604556,5.3140336894772595,117.536,-0.9772294000359238,4
2.3286792004588888,-0.6980006269888634,-45.7022694961566,46.86533473527489,-2.2572431621186704,-2.8517303159682585,2.315229665498634,117.54,-0.973229400035919,4
1.1179743016777415,-0.9501554522159488,-44.839322270049394,48.04999397780675,-2.9830021070769694,-3.0850032409262753,2.6895147907841337,117.544,-0.9692294000359283,4
2.1722339846448,-6.128756611280897,-42.967604239913726,50.213617494017626,-8.59351877024651,-0.4984393778571392,5.802467520635876,117.548,-0.9652294000359234,4
4.432073374344252,-12.154614364301569,-41.181241477400306,51.71815320899108,-14.672957963277169,2.837461810144086,9.021125411499652,117.552,-0.9612294000359185,4
6.401709091854326,-15.385592380643052,-40.003223394354464,51.591304109525694,-17.766999133656512,5.06398107163089,10.09882063564314,117.556,-0.9572294000359278,4
7.312358043887727,-15.71686437762303,-38.91607464319527,50.43161995361249,-18.219805943355155,6.017124419291866,9.091642547381403,117.56,-0.9532294000359229,4
7.500050894760995,-16.267641833781283,-36.90440557209533,49.874374971623524,-19.28769202952629,7.000788118271189,8.084525450747206,117.564,-0.9492294000359323,4
7.771000523928261,-20.005049244524827,-33.568788978780674,51.082205624239116,-23.50015032110803,9.166888315001446,9.053894081244724,117.568,-0.9452294000359274,4
8.44846038804112,-26.509656656098112,-29.812878038711435,53.63714877359353,-29.771846208943902,12.097908334870064,11.910863407248742,117.572,-0.9412294000359225,4
9.031721694611,-31.997527882840135,-27.391587053564574,55.86584801619086,-34.0512741401494,13.979467185984376,14.56335217976789,117.576,-0.9372294000359318,4
8.76724826424415,-32.71542192265994,-27.555814439376416,56.325936515253616,-33.00334490084666,13.260954066814502,14.920442416570774,117.58,-0.9332294000359269,4
7.543542238656029,-28.64132347098249,-29.870811630953945,55.112669312193056,-27.374597223630122,10.290581771064787,12.939939003652695,117.584,-0.929229400035922,4
6.204113711245058,-24.000133454228347,-32.27348268312791,53.7984486188266,-21.879480633906976,7.364369783493794,10.786164657697798,117.588,-0.9252294000359313,4
5.917444939766929,-23.904546931940835,-32.48889655083229,54.05498531178753,-21.518951465919432,7.009993917829466,10.92997077930864,117.592,-0.9212294000359265,4
7.141253427292641,-29.95289496235918,-29.776808325688567,56.18988289394456,-27.440328780730944,9.914615233209155,13.924280514332365,117.596,-0.9172294000359216,4
9.132048507555123,-38.64632568724198,-25.60817630062418,58.87984161219838,-35.89932302962146,14.276379064793788,17.865555832940345,117.6,-0.9132294000359309,4
10.483695046909347,-44.05255743855554,-22.6684880078046,60.28391702674789,-41.1931370834562,17.160335450041906,19.98623500611722,117.604,-0.909229400035926,4
10.250086530279672,-42.43141413598043,-22.936663715735577,59.508635944223414,-40.0208699343821,16.7226375837236,18.90758772787144,117.608,-0.9052294000359211,4
8.673227427633844,-34.901866592037045,-26.347782598661862,57.17078431204899,-33.630674113228494,13.455356632650316,15.580954931594265,117.612,-0.9012294000359304,4
6.896869652553458,-26.09481756444725,-31.038302535186723,54.70276876959597,-26.225692723519213,9.516776498742667,12.242397902261123,117.616,-0.8972294000359256,4
5.964367257175324,-20.30046463731259,-34.83202424088622,53.16698498299635,-21.398616714897365,6.8957913703230185,10.503961982601524,117.62,-0.8932294000359207,4
6.0211546036281955,-18.59589449928307,-36.6452574459336,52.65107375210414,-19.832774497740097,6.077997741919581,10.323700345304875,117.624,-0.88922940003593,4
6.397545782438976,-19.155124288822766,-36.72466283684447,52.6167917554416,-19.954629258933792,6.245562271255298,10.574516575465195,117.628,-0.8852294000359251,4
6.395046929326435,-19.840312427167138,-35.7972213216493,52.646330633759334,-20.323385940850716,6.535140321067898,10.38440180551351,117.632,-0.8812294000359202,4
5.96819497842937,-20.28204921310249,-34.168234386241785,52.782093982840074,-21.129104648559824,6.968595822922606,9.860503463712064,117.636,-0.8772294000359295,4
5.672207006676814,-21.620185653918476,-31.666374344901975,53.235445323044296,-23.458660992382935,8.183155645990492,9.654413015491803,117.64,-0.8732294000359246,4
6.014553853005349,-24.653589774597624,-28.32952714706971,53.9507861176528,-27.471659118859616,10.414581716649648,10.074854353219191,117.644,-0.8692294000359198,4
6.919515055968904,-28.633555513016535,-24.92374136484747,54.59503033489668,-31.699027143501645,12.942608848467897,10.799169782032203,117.648,-0.8652294000359291,4
7.8368141006222745,-31.957676761876176,-22.601932094983304,54.970903738429726,-34.31126369613077,14.647024285741047,11.41613042819722,117.652,-0.8612294000359242,4
8.32624966915886,-33.82941080092888,-21.973264386676686,55.31263527164365,-34.95969195724276,15.085914211773632,12.037567992272196,117.656,-0.8572294000359193,4
8.47400629420738,-34.9535578802401,-22.53090002764072,56.03870693314059,-35.11669570260591,14.925128256092918,13.163312127045842,117.66,-0.8532294000359286,4
8.71968132083118,-36.521603515221514,-23.06212954763973,57.18159993625367,-36.458310039538254,15.234305174387567,14.906456670927097,117.664,-0.8492294000359237,4
9.32319622666471,-38.69421577117231,-22.68578306384677,58.1528240241013,-38.99018625566822,16.37719593023045,16.516968909690867,117.668,-0.8452294000359188,4
10.071569470535156,-40.3327277171735,-21.544242532477895,58.20383308846171,-40.96388882686904,17.662828295314917,16.902628222208662,117.672,-0.8412294000359282,4
10.538162722213524,-40.30679309943326,-20.537785905976257,57.189685410065145,-40.75028073296741,18.12117683652299,15.745834769575284,117.676,-0.8372294000359233,4
10.597873692058124,-38.93203059412868,-20.424282708937152,55.84653205337514,-38.72484544651345,17.582281312712606,14.054471691433411,117.68,-0.8332294000359184,4
10.635198932557422,-37.93887184223476,-21.159356982069898,55.22789587366255,-37.153004041374516,16.931335133507513,13.456802925951695,117.684,-0.8292294000359277,4
11.226187922742929,-38.983897185525315,-22.019679103059584,55.79902003529948,-38.14278576791663,17.293203144003645,14.82795095445549,117.688,-0.8252294000359228,4
12.631237971047364,-42.27668140406366,-22.262157992076734,57.071776516944205,-41.74852056970516,19.00777113981706,17.57657433803693,117.692,-0.8212294000359321,4
14.599724214174245,-46.68633801635397,-21.652973039735798,58.14107908733081,-46.110714994423496,21.415814777571484,20.293407971436743,117.696,-0.8172294000359273,4
16.615950137807218,-50.99864074392819,-20.488921492878493,58.5687651474401,-49.33587284534327,23.561168442015063,22.077551354887575,117.7,-0.8132294000359224,4
18.25645654873184,-54.76663316021026,-19.29258227229461,58.7016969223195,-51.02564649081896,24.964139306831097,23.162569145441395,117.704,-0.8092294000359317,4
19.291155511125375,-57.82806660568297,-18.56058234769364,59.10171910280122,-51.88944589606965,25.66360763904011,24.22161259647954,117.708,-0.8052294000359268,4
19.54176822624992,-59.294460722148436,-18.672796694661233,59.70958069296568,-52.102388582338385,25.653102913537595,25.165194166394862,117.712,-0.8012294000359219,4
18.824115439613887,-57.59053471416713,-19.787054572478127,59.67652650747078,-50.510391786319225,24.55359926865169,24.833739857228128,117.716,-0.7972294000359312,4
17.161376521499616,-51.94165716267044,-21.644299339607986,58.12695045734645,-45.81164645592207,22.042989075449242,22.06628690390518,117.72,-0.7932294000359263,4
15.03835147477967,-43.84604572880169,-23.52193705300324,55.134653422069626,-38.51547928403639,18.58118788697553,17.129269282016512,117.724,-0.7892294000359215,4
13.300918539497387,-36.706371384342795,-24.594250253590626,51.91612827528176,-31.399991163595256,15.491087961047645,11.992478025701898,117.728,-0.7852294000359308,4
12.640953415521523,-33.53863908189269,-24.532935665391165,49.97521577551023,-27.642534635930442,14.08852679531753,9.009413396865034,117.732,-0.7812294000359259,4
13.095223384954501,-34.7542476980319,-23.77670222833204,49.9515433904669,-28.28357898184685,14.632595964473879,9.135166168315502,117.736,-0.777229400035921,4
14.056593898625415,-38.135416137080405,-23.088548528276974,51.21334902388781,-31.5132476197086,16.16938708250212,11.297882280050645,117.74,-0.7732294000359303,4
14.817482149270282,-41.0235648193124,-22.739051087349775,52.51741748993501,-34.487356668667225,17.46931503129583,13.445757904828287,117.744,-0.7692294000359254,4
15.131178658809175,-42.55963824892469,-22.15378800475448,53.06611467741371,-35.84199736189147,18.12226214384742,14.235868135500334,117.748,-0.7652294000359205,4
15.270254403964753,-43.85543936786794,-20.50007116485821,52.998044493931054,-36.461876963319234,18.697312892468382,13.851775705681186,117.752,-0.7612294000359299,4
15.599986449152542,-46.195474649194395,-17.716965964664716,52.98672817641913,-37.97972263668817,19.8864752904647,13.418973334510907,117.756,-0.757229400035925,4
16.18187970781724,-49.39415474328853,-14.91099205426392,53.48858253437303,-40.838492487396046,21.63717208123834,13.836004961519881,117.76,-0.7532294000359201,4
16.833386347750285,-52.10576184820328,-13.555982833495785,54.40766444341349,-44.0182010334351,23.244709324349994,15.19418559962037,117.764,-0.7492294000359294,4
17.505152240870277,-53.60424923716206,-14.137506267295864,55.38446780856903,-46.51366937683541,24.258878169239896,17.106926662614132,117.768,-0.7452294000359245,4
18.446608716181032,-54.84660825732557,-15.562568505076106,56.23903712838439,-48.64378213305733,25.101739517672147,19.265573533221435,117.772,-0.7412294000359196,4
19.875190173953694,-57.41049403501188,-16.03641457923386,57.027760585775226,-51.5174975111486,26.58463498470669,21.476820380958717,117.776,-0.737229400035929,4
21.484369537452856,-61.33913358817047,-14.705850626209452,57.71845586403527,-55.19390626519703,28.76917439359396,23.266890684494868,117.78,-0.7332294000359241,4
22.41213525561259,-64.35331007930345,-12.547405601657298,57.984477565176384,-57.7588139920473,30.462924805194493,23.79999204702457,117.784,-0.7292294000359192,4
21.873278606548595,-63.64702589113828,-11.59921785351883,57.48753655304225,-56.73803759838511,30.0934011124503,22.530065071001058,117.788,-0.7252294000359285,4
19.9377933300002,-58.763475591130856,-13.160718171405067,56.407853782946766,-51.72845312583957,27.265993412273396,20.041006363155137,117.792,-0.7212294000359236,4
17.682044536098726,-52.68427736299164,-16.5720314605104,55.589964831460435,-45.556954953741524,23.475868551830203,18.065385857854185,117.796,-0.7172294000359187,4
16.46419103233626,-49.77152500510511,-19.688078686104785,55.98140604656058,-42.45666435614426,21.13237737366324,18.338293594794088,117.8,-0.713229400035928,4
16.892345525940573,-52.18042457252642,-20.640802675510745,57.77175591148687,-44.61714415966503,21.64064053441904,21.133629435855724,117.804,-0.7092294000359232,4
18.364118082687558,-57.90646748705209,-19.34710841896636,60.03581042170619,-50.1759636974947,24.220531311730863,24.80907978738854,117.808,-0.7052294000359183,4
19.559215185414438,-62.24296957690218,-17.48400650906121,61.30253775714135,-54.541790936610624,26.516122007992756,26.890892072025494,117.812,-0.7012294000359276,4
19.444960836698954,-61.4320110707117,-17.020399079971124,60.64497758691324,-53.97886754717461,26.4654089839331,25.87593029031216,117.816,-0.6972294000359227,4
17.967037590036025,-55.46522264733556,-18.607566890734272,58.39742447699126,-48.426189008262526,23.841993684414987,22.2925227948901,117.82,-0.693229400035932,4
15.943006892157134,-47.87082748347855,-21.156793784511063,55.91416679519776,-41.30569715852458,20.258517984650013,18.21762675450932,117.824,-0.6892294000359271,4
14.366427302116264,-42.92217651874931,-22.85024987090746,54.593778120425284,-36.721306202652606,17.7854506193507,15.748076550417144,117.828,-0.6852294000359223,4
13.735481013133269,-42.657436273999245,-22.646794386535753,54.96793810544079,-36.50988249416349,17.422647634057697,15.688046402066762,117.832,-0.6812294000359316,4
13.869029550855876,-45.90438503214793,-21.039693951253636,56.51898388356371,-39.402757096604766,18.600624104083206,17.35819854150356,117.836,-0.6772294000359267,4
14.21207621634576,-49.6554596765187,-19.547261982669063,58.23515436912214,-42.567020723027234,19.906069365924814,19.416442430822272,117.84,-0.6732294000359218,4
14.294298295148801,-51.36694955662927,-19.473381441734436,59.34879415183532,-43.915323348476775,20.260322652888657,20.852239246967706,117.844,-0.6692294000359311,4
13.999745651078447,-50.38868628419724,-20.98792535027878,59.679546220632794,-43.289305528926846,19.58200924135511,21.40461605033653,117.848,-0.6652294000359262,4
13.527172013553082,-47.744291940047546,-23.202755922212813,59.446869878277276,-41.87047554105414,18.541929818951584,21.30155169253257,117.852,-0.6612294000359213,4
13.148202973333671,-44.84302759938497,-25.045949300269285,58.87428882243188,-40.69426661353657,17.788230123255794,20.7725215941695,117.856,-0.6572294000359307,4
12.97225014759048,-42.35959746642025,-26.109172127779743,57.9986863404505,-39.70482141676039,17.372704618120473,19.82994990479894,117.86,-0.6532294000359258,4
12.887827843213824,-40.12816750137351,-26.753675210187378,56.813722774692785,-38.106793560375074,16.843298438798968,18.443787215230397,117.864,-0.6492294000359209,4
12.708916483190542,-37.90890434962005,-27.475975514512772,55.5250483872255,-35.543561591362646,15.853268773700586,16.84120781137884,117.868,-0.6452294000359302,4
12.388169989963393,-36.120466650185314,-28.21727941433126,54.59478063242269,-32.889947255711604,14.676498378861583,15.56824431898052,117.872,-0.6412294000359253,4
12.086750985930461,-35.702810370669425,-28.33997104959877,54.46830690893159,-31.785573265167283,14.089563949150158,15.183732841423275,117.876,-0.6372294000359204,4
12.005916471236713,-37.13526935293695,-27.339316038269086,55.1963936884227,-33.18483864792787,14.652676373686678,15.804437505787835,117.88,-0.6332294000359298,4
12.124195061133504,-39.5493000490683,-25.5996780784665,56.29958906114354,-36.19972839329458,16.025810321550026,16.89911207700231,117.884,-0.6292294000359249,4
12.121454521564266,-40.963095698482554,-24.37394970243856,57.04433813318358,-38.4316970325247,17.027075256055205,17.57587452264279,117.888,-0.62522940003592,4
11.62824462445134,-39.7118323590875,-24.848127806951588,56.95301361118187,-37.75800650389668,16.52660431351279,17.210104120789783,117.892,-0.6212294000359293,4
10.6103524085808,-35.94508738262481,-27.054518622371393,56.14901945837891,-34.15881100312112,14.466205164938497,15.93283997621914,117.896,-0.6172294000359244,4
9.513093327598924,-31.790447679169045,-29.648555719673322,55.24678772047511,-29.94338219873966,12.06894168203873,14.553562867469273,117.9,-0.6132294000359195,4
8.977975084249909,-29.852462709184774,-30.857181942149644,54.861872927080526,-28.025553681122133,10.956625521083005,13.938724800043127,117.904,-0.6092294000359288,4
9.356102261758853,-31.232507614108375,-29.84747929816559,55.134331231568446,-29.64165388883379,11.885545721586949,14.345661586193543,117.908,-0.605229400035924,4
10.461377369264971,-34.7691184296516,-27.34425135714592,55.65038780060169,-33.47312098464891,14.200988045937917,15.273737555641867,117.912,-0.6012294000359191,4
11.784484068334116,-38.13938620947136,-24.971469743191253,55.812489985245215,-36.9114747483603,16.47835909267746,15.946997554766137,117.916,-0.5972294000359284,4
12.937368685819763,-39.787472769656446,-23.923370978716118,55.3344813320687,-38.274624461050465,17.733645808861908,15.979972382672663,117.92,-0.5932294000359235,4
13.886207658004457,-39.953533740712246,-24.133864545823844,54.44986167921522,-37.970474651742904,18.091308380245533,15.630495220813804,117.924,-0.5892294000359186,4
14.781418506917813,-40.01201009332106,-24.596947388558128,53.683110759202265,-37.67671746002889,18.370666753854213,15.45047892193378,117.928,-0.5852294000359279,4
15.631041985244574,-40.936512608887924,-24.416318602471456,53.40402772762201,-38.500077365065536,19.110147444867515,15.707691418690834,117.932,-0.581229400035923,4
16.211273245430107,-42.41278718782797,-23.557576024875587,53.54185385930791,-39.94709384606587,20.037109978221,16.12721997581041,117.936,-0.5772294000359182,4
16.31281062223048,-43.32185080677351,-22.671158397353803,53.669919320398996,-40.59921159190767,20.456955826714555,16.15253502669095,117.94,-0.5732294000359275,4
16.025825501783594,-42.93069416160667,-22.2956706684819,53.35725026754955,-39.66299354817142,20.072529383431807,15.433753225495018,117.944,-0.5692294000359226,4
15.71904306208792,-41.561188950576955,-22.300537124199224,52.49303406138887,-37.79416016745893,19.348358740813556,14.095450377944774,117.948,-0.5652294000359319,4
15.717610006436455,-40.19562886598206,-22.098346683552762,51.34908799658517,-36.44496156604595,19.063746736021503,12.60849237653762,117.952,-0.561229400035927,4
16.02565477884683,-39.56035860297001,-21.350796658125777,50.3635066766153,-36.47821765964241,19.547032639303296,11.453178825972772,117.956,-0.5572294000359221,4
16.38195144819286,-39.58822069623686,-20.42908666188519,49.82078458632576,-37.40912546435409,20.364364517084738,10.859332270872777,117.96,-0.5532294000359315,4
16.554372579895027,-39.59799836932352,-20.179377265740296,49.65255343531451,-37.886043533884205,20.71921779469353,10.737275359044947,117.964,-0.5492294000359266,4
16.521532415966192,-38.81870444956807,-21.232055496643216,49.490138967047166,-36.814142427233676,20.11065703362539,10.742573956806211,117.968,-0.5452294000359217,4
16.358432247911605,-36.77949595504925,-23.487227407395054,48.93731776364591,-34.08705376087438,18.635200163138066,10.422826948623102,117.972,-0.541229400035931,4
16.029494336663618,-33.490528139877284,-26.18147741725407,47.885905064745415,-30.487339858236094,16.781852104565896,9.46209390939251,117.976,-0.5372294000359261,4
15.419340522023294,-29.586780383460326,-28.394544430916277,46.65098898898404,-27.13720136176538,15.078059532659355,7.970137132475293,117.98,-0.5332294000359212,4
14.620693584099458,-26.372006511683335,-29.53909054359657,45.80695358869253,-25.06355750275416,13.951130640761328,6.59587674448074,117.984,-0.5292294000359306,4
14.108791199866808,-25.415232772656573,-29.524665428444436,45.81856680620491,-24.99478447237923,13.76552162375189,6.241803043656634,117.988,-0.5252294000359257,4
14.463156380204133,-27.60663241251149,-28.645875147339076,46.73315895710065,-27.143113122324614,14.739384189019402,7.459921155851006,117.992,-0.5212294000359208,4
15.792449370791983,-32.27112231115897,-27.41671867044246,48.171701600319324,-30.921769588300965,16.66647479941201,9.978984799379099,117.996,-0.5172294000359301,4
17.450709229147346,-37.25890253744937,-26.44615165931744,49.62177214499631,-34.970369089567775,18.779036529711966,12.823905382478952,118.0,-0.5132294000359252,4
18.463276878698093,-40.28852221946664,-26.26540763812447,50.785316270528206,-37.83130557758039,20.11707862573525,15.019563660209949,118.004,-0.5092294000359203,4
18.38633109027304,-40.641400180888944,-27.048229446563777,51.699161501947444,-38.98599931823959,20.272508314510326,16.317628038961512,118.008,-0.5052294000359296,4
17.796326822957663,-39.7587139455168,-28.38640055544223,52.56470006107432,-39.376302624498315,19.856174053567038,17.304216187858334,118.012,-0.5012294000359248,4
17.851661200306875,-40.07672689752307,-29.400631372068226,53.48585694722048,-40.759771948029176,20.124235835776783,18.77537623431634,118.016,-0.49722940003591987,4
19.234640921822354,-42.96905949502392,-29.260617627467408,54.366816561061896,-44.241208651506476,21.93533943855144,20.934088852562123,118.02,-0.4932294000359292,4
21.437676322680783,-47.533134468597034,-27.794885137639437,55.026273556659795,-49.17891551117355,24.91266317614077,23.13032206192867,118.024,-0.4892294000359243,4
23.11089757619838,-51.28480970524326,-25.686876158068987,55.36106354834043,-53.480553437654045,27.613212400811413,24.367065775616055,118.028,-0.4852294000359194,4
23.212748801328253,-52.16371751306606,-24.03136051685664,55.37522588961694,-55.13400198260685,28.637277365582055,24.103827956002284,118.032,-0.48122940003592873,4
21.921204051565628,-50.106733712824436,-23.5724806508258,55.078975043288324,-53.70082173395445,27.728814094197467,22.651042908553283,118.036,-0.47722940003592385,4
20.451175859018093,-46.86637121702659,-24.25744233429371,54.42631462082558,-50.49607044432038,25.883283149955112,20.859110365841893,118.04,-0.47322940003591896,4
19.937780031601424,-44.34128555079228,-25.48083035889389,53.40645133913966,-47.34108095180997,24.374339108917187,19.44462638183787,118.044,-0.4692294000359283,4
20.426404697076702,-42.986256661434496,-26.761203805554253,52.196423772734676,-45.05486559143696,23.614290437386575,18.565207151227742,118.048,-0.4652294000359234,4
20.907978760457286,-41.70906057465569,-28.177161127226913,51.16815989976133,-43.052931188491876,22.915858076885794,17.947156153270054,118.052,-0.4612294000359185,4
20.342580406953964,-39.23223466037916,-30.122538419298596,50.67091251163334,-40.346547853335565,21.357167467593825,17.33066054683219,118.056,-0.4572294000359278,4
18.681257159721543,-35.54756087891296,-32.62956383910318,50.75436981061069,-36.88892324431369,18.883587437411055,16.746833554586544,118.06,-0.45322940003592294,4
16.91949748680246,-32.06465943401111,-34.98381549890042,51.093598318198985,-33.887952375489306,16.543034522094832,16.380296981304568,118.064,-0.44922940003593226,4
16.16167192355014,-30.341437854221063,-36.112703643103174,51.209594666958964,-32.732698013806555,15.592084339329636,16.22348858129205,118.068,-0.44522940003592737,4
16.617284641314104,-30.64102012845585,-35.46818385538236,50.8099631418653,-33.57881961086851,16.321767568302782,15.939008243224533,118.072,-0.4412294000359225,4
17.478075178606538,-31.691733597041043,-33.59240324577931,49.96735610812748,-35.0204074139498,17.741045858206643,15.118067111829482,118.076,-0.4372294000359318,4
17.737518537545245,-31.82607560091475,-31.809993307157345,49.003945663836404,-35.223054863409644,18.42376819444158,13.693891375658506,118.08,-0.4332294000359269,4
17.106271775975653,-30.336844593007246,-31.307652688917436,48.20344692536687,-33.429608930990206,17.689668346109258,12.074719165463113,118.084,-0.429229400035922,4
16.14278578359477,-27.7502182530135,-32.426601981286595,47.59793459677256,-30.370824073610127,15.990705801374665,10.81621812616823,118.088,-0.42522940003593135,4
15.558125944360063,-24.90630283849559,-34.73360242151692,46.99007722821939,-27.251370914329875,14.21489954791384,10.128173453849092,118.092,-0.42122940003592646,4
15.48706018768802,-22.0075487930057,-37.63206357401491,46.17655867726654,-24.483295584431715,12.732618234766253,9.726670851731509,118.096,-0.41722940003592157,4
15.489440728319616,-18.77159736067538,-40.78143243036848,45.19424170851014,-21.592860829716177,11.227841335100665,9.234366848829618,118.1,-0.4132294000359309,4
15.211070990094193,-15.484821420373988,-43.92697030808216,44.39642428572218,-18.38507474459688,9.44052703358372,8.748844163652947,118.104,-0.409229400035926,4
14.897085527357298,-13.548994398086812,-46.508042470618946,44.26972741073416,-15.918601781392676,7.8789237451319645,8.929901966875025,118.108,-0.4052294000359211,4
15.11670356142546,-14.484081225334824,-47.72244151498118,45.070756389795264,-15.872459657205523,7.534313201643096,10.357209244657719,118.112,-0.40122940003593044,4
15.962909657031332,-18.086058357500068,-47.187200163438966,46.51868873643067,-18.63181290916179,8.74456314708964,12.67890988954921,118.116,-0.39722940003592555,4
16.651329155423646,-21.712999982304154,-45.536668845469336,47.81102891595612,-22.086763036731522,10.427980959079182,14.44609283404609,118.12,-0.39322940003592066,4
16.096449297314265,-21.905576647464684,-44.181957330177404,48.047515179022284,-22.78070181415206,10.705766850943476,14.018504464514129,118.124,-0.38922940003593,4
13.997136612927092,-17.240001512288746,-44.2573508148746,46.82235636912664,-18.75341950614498,8.531324954992053,10.899953896262545,118.128,-0.3852294000359251,4
11.322553633138671,-9.77929472022284,-45.687853845619145,44.53704506322974,-11.475242432851514,4.778021687435042,6.304770614890063,118.132,-0.3812294000359202,4
9.59901196353346,-3.5292936730374542,-47.30768017868377,42.1406013205643,-4.845310015670525,1.6154335135339561,2.3272370697600357,118.136,-0.37722940003592953,4
9.603627764694812,-1.142604164887349,-47.955381376820355,40.46709345865528,-1.9977048948678264,0.6644407699143527,0.36052844331111455,118.14,-0.37322940003592464,4
10.729955866130755,-1.9393908803735003,-47.48361714725692,39.71590144774132,-2.8851369440611356,1.6871921767390563,0.17509548108043188,118.144,-0.36922940003591975,4
11.665862743232097,-3.122060792882341,-46.712286446477826,39.51558959578755,-4.910067345151439,3.0720496728374727,0.49091257265449445,118.148,-0.3652294000359291,4
11.703988352335884,-2.88509774126829,-46.45865141533923,39.467916226223366,-5.824876680329619,3.5584626416685436,0.43825861670935373,118.152,-0.3612294000359242,4
11.34875566476616,-2.177484798104627,-46.72814629175199,39.595884030781285,-5.836579689002192,3.385970889735671,0.41160019357569905,118.156,-0.3572294000359193,4
11.606074197878389,-3.2707125941821955,-46.91832582816709,40.21868512745462,-6.76429780142106,3.6965186546046573,1.4320582438326845,118.16,-0.3532294000359286,4
12.724665897844613,-6.6876950928533425,-46.72843866169473,41.390005293695864,-9.31183845290146,4.918797771823159,3.6945032440859102,118.164,-0.34922940003592373,4
13.75806313921288,-9.909150586868563,-46.66276321733034,42.54509604145319,-11.622399966804629,5.992662316799405,5.898492273538063,118.168,-0.34522940003591884,4
13.474629146583458,-9.520667832754647,-47.4774900497241,42.839992479257084,-10.948566978908877,5.400617246979323,6.231485988567777,118.172,-0.34122940003592817,4
11.710504088972515,-4.800402871120197,-49.154815448341004,41.944543949479126,-6.828663122622816,2.972633679173788,4.156199724458609,118.176,-0.3372294000359233,4
9.739855794147298,0.9866066468612841,-50.60788942974512,40.50350982317476,-2.3027241202486235,0.47600627423553776,1.2046350115748734,118.18,-0.3332294000359184,4
9.206249577038296,3.17052017872091,-50.58165203699066,39.72079493565339,-1.5542269902739143,0.18918953824615814,-0.15087520239416383,118.184,-0.3292294000359277,4
10.637309041015106,-0.21817669999898648,-48.882283680769895,40.36891451613118,-6.1055404678765335,2.7914680075955416,1.4083092839036022,118.188,-0.3252294000359228,4
13.015249180812006,-6.822240136538663,-46.619218367744224,42.13452954382711,-13.373306601909565,6.709749717943316,4.955236663610034,118.192,-0.32122940003593214,4
14.814888615687188,-12.383135643449968,-45.13714733287918,43.930607271630244,-19.115245842505356,9.628580350288411,8.261452581228674,118.196,-0.31722940003592726,4
15.438173583673395,-14.73089485190911,-44.723145301243655,44.87959893711446,-21.34794151058917,10.648934870539806,9.835274272414281,118.2,-0.31322940003592237,4
15.602307591083516,-15.342636263285305,-44.45766467820524,45.02195746577187,-21.806613200665982,10.90849687861874,10.074152206682417,118.204,-0.3092294000359317,4
16.351303326908802,-17.069581568588067,-43.37692972821528,45.09242805437355,-23.56787424496556,12.081394887836003,10.489259272650548,118.208,-0.3052294000359268,4
17.7875736857772,-20.609852400568318,-41.68893711155227,45.643342428628074,-27.42368233438634,14.385895226208024,11.905660505893637,118.212,-0.3012294000359219,4
18.878758894447284,-23.521891564923333,-40.68780437270825,46.42945212630603,-30.84005205789708,16.22352474400477,13.518012230770587,118.216,-0.29722940003593123,4
18.539076309271604,-22.811610727560495,-41.39109432203402,46.66927757828791,-30.580581818816462,15.838787938255072,13.736145042596384,118.22,-0.29322940003592635,4
16.84209197634664,-18.33670703504132,-43.325020032953155,45.893077663856005,-26.240384723163267,13.259740214889161,11.907201936065931,118.224,-0.28922940003592146,4
15.090508208072789,-13.427952892034048,-44.7850273853601,44.51021916991903,-21.02626536116867,10.489702529935464,9.148815730635528,118.228,-0.2852294000359308,4
14.65911184168853,-12.048978090548276,-44.371596730649514,43.5431257516536,-19.011200861911096,9.745786379056188,7.483751710710569,118.232,-0.2812294000359259,4
15.77949179077817,-15.37521663681749,-42.253187461501206,43.815661189014655,-21.681313372247462,11.538683049641593,8.175881441131756,118.236,-0.277229400035921,4
17.461599842939208,-21.16267391846721,-39.88098396506275,45.37745199164667,-27.152177293403337,14.482406903294663,10.87437643905274,118.24,-0.2732294000359303,4
18.56270826399974,-26.302077817375775,-38.49474396716472,47.632953359118865,-32.523645298320815,16.87955882578117,14.245246633961536,118.244,-0.26922940003592544,4
18.87357612649156,-29.733521181643788,-38.004368362333004,49.91911116615664,-36.65796137385207,18.33336316094032,17.26980046424034,118.248,-0.26522940003592055,4
19.148431771292266,-32.767690643632086,-37.389908270738644,51.910151734257624,-40.519654258231036,19.748176570038936,19.87049309701295,118.252,-0.26122940003592987,4
20.13624187599387,-36.78441132962565,-36.11719868441428,53.54041080384945,-45.06042616665841,21.88223590658106,22.40314759427396,118.256,-0.257229400035925,4
21.669203053795258,-41.034693341023264,-34.980469800301044,54.702785640109525,-49.27425000363957,24.1374178035638,24.78000664749531,118.26,-0.2532294000359201,4
22.734858847265727,-42.9836722645736,-35.41198106366361,55.161712629637094,-50.69042926395055,24.929216237546914,26.26029487773803,118.264,-0.24922940003592942,4
22.41326964213932,-40.7767994164041,-37.96037838978289,54.7718346781223,-47.76972756435485,23.230911573475144,26.090889476805078,118.268,-0.24522940003592453,4
20.716622860353304,-35.14766111420287,-41.55578553296255,53.680945603375434,-41.566261090861886,19.64302878711237,24.229110487186215,118.272,-0.24122940003591964,4
18.544103409484116,-28.77457123731162,-44.37729002084397,52.21680662948498,-34.85378493828462,15.885204973712092,21.35953118375904,118.276,-0.23722940003592896,4
16.88284691739216,-23.844523150321436,-45.47405223702637,50.5680108280382,-29.66065549276353,13.2753278273927,18.25304530728828,118.28,-0.23322940003592407,4
16.06342069783272,-20.377257781086495,-45.520488055737786,48.65564272769783,-25.78078743698164,11.745555857278271,15.213913990997105,118.284,-0.22922940003591918,4
15.693274560520765,-16.875966218082016,-45.995712762946,46.38977341035936,-21.65335787404946,10.273756906420951,12.168231977776415,118.288,-0.2252294000359285,4
15.16139931879668,-12.342802517131242,-47.67995708914065,44.03397089574429,-16.44696579364026,8.110303757985621,9.164051427385564,118.292,-0.22122940003592362,4
14.137529527040519,-7.413483006170584,-49.97952255296753,42.22014324411386,-11.058632758337803,5.480909413159105,6.613056133162436,118.296,-0.21722940003591873,4
12.679171326509008,-3.5761703174093253,-51.6420820687179,41.509418158767076,-7.137902089116621,3.18746636048881,4.980098629478965,118.3,-0.21322940003592805,4
11.05843441469786,-1.6174944033744314,-51.980858834473956,41.909827793352875,-5.458046040617418,1.7633482207179454,4.32478884969715,118.304,-0.20922940003592316,4
9.627991087907597,-1.1250132361346734,-51.31895283548788,42.8544015245439,-5.4995611837179466,1.1846041873523145,4.276530455536713,118.308,-0.20522940003591827,4
8.810898322843586,-1.4425583611330683,-50.338919797368,43.68298582963451,-6.518347837435621,1.320296092124967,4.485645751333649,118.312,-0.2012294000359276,4
9.021263062789771,-2.7144158707305013,-49.23226518167899,44.14845572516846,-8.603108687210264,2.377697380751521,5.002373570910023,118.316,-0.1972294000359227,4
10.400420315467334,-5.633509933521351,-47.6586707310889,44.458876209576346,-12.345989260222778,4.663832640512141,6.115040759277227,118.32,-0.19322940003593203,4
12.582578381912796,-10.19364008454922,-45.48715227546275,44.8844928930098,-17.55528219257361,7.923008757266982,7.845994520396004,118.324,-0.18922940003592714,4
14.819577601504504,-15.08151162554407,-43.33187381008599,45.423419188280555,-22.734168604219896,11.150539511330667,9.75401773873424,118.328,-0.18522940003592225,4
16.468046937384234,-18.67090646363481,-42.12805870858701,45.906275359213325,-26.221307168077125,13.298953077757275,11.346996965944115,118.332,-0.18122940003593158,4
17.406480501398942,-20.609361455787848,-42.15772914873659,46.357169768877775,-27.827841242254916,14.198791271823257,12.632490304679393,118.336,-0.1772294000359267,4
17.940100531248643,-22.051991125783907,-42.68225242831949,47.07682897682541,-28.954985926241168,14.612145399611592,14.060154572658911,118.34,-0.1732294000359218,4
18.26204539573979,-23.972887567785392,-42.74981483308795,48.220472149318795,-30.724138726627555,15.206625495306259,15.75769808713605,118.344,-0.16922940003593112,4
18.050651387567797,-25.29361155963827,-42.40255393843136,49.30138057465048,-32.030233008475165,15.500199558281642,16.874166986044894,118.348,-0.16522940003592623,4
16.70125715887935,-23.163455140358533,-42.907735892348995,49.29444105024706,-29.912658083611852,14.043054327335781,15.945096579857184,118.352,-0.16122940003592134,4
14.031752041190385,-15.650581044792832,-45.55189057459961,47.469099537192015,-22.39046969964596,9.883965584584752,12.208124156071268,118.356,-0.15722940003593067,4
10.734776774192401,-4.3614258530652945,-50.09415593717211,44.249123558488826,-11.121267351138705,3.9179287457517615,6.675020062943147,118.36,-0.15322940003592578,4
8.016170422704414,5.898720932956477,-54.510759170708596,41.186097040902894,-0.9653111702626027,-1.3827537043517597,1.7578356487591926,118.364,-0.1492294000359209,4
6.658590909309384,10.621330365493218,-56.49088745530054,39.885883170927514,3.6189561698472574,-3.8353007145969977,-0.4585724456798103,118.368,-0.1452294000359302,4
6.386917313262846,9.193056017926807,-55.36841218850757,40.77054004573111,2.159644130698216,-3.3278817799032057,0.18613646079182466,118.372,-0.14122940003592532,4
6.197789330992927,5.115139166909711,-52.62002328537386,42.824912604527206,-1.7394150192025803,-1.760579713737741,1.982176915884357,118.376,-0.13722940003592043,4
5.4000640415560595,2.459275097221203,-50.38751055792945,44.60703086944352,-4.050227025907094,-1.1105209523672512,3.0818885279830392,118.38,-0.13322940003592976,4
4.382215246316461,1.889007447228188,-49.43206683779417,45.58504233884938,-4.266399896687382,-1.4543291044734659,3.296530806561003,118.384,-0.12922940003592487,4
4.326584276528829,0.16835392396592377,-48.54163948374159,46.50955680741031,-5.753355221051684,-0.9124552132158237,4.202954910104069,118.388,-0.12522940003591998,4
6.075976685927514,-6.224414721991365,-46.01199867282797,48.44788761527296,-12.027197277280635,2.3429393554277427,7.396807015471771,118.392,-0.1212294000359293,4
9.192037681117942,-16.842596176390852,-41.74767363462689,51.43835574341095,-22.523582339337846,7.920263930685127,12.563194795141582,118.396,-0.11722940003592441,4
12.115121234234753,-26.671056112764518,-37.839244318599285,54.15007668198947,-32.106704659822114,13.042782580049806,17.309024594911904,118.4,-0.11322940003591953,4
13.343699924796386,-30.100600765274823,-36.89797049002329,54.98741550904332,-35.11818700471361,14.709752972481825,19.0758898536902,118.404,-0.10922940003592885,4
12.618813252652505,-25.976434428748394,-39.61726012198838,53.64494106809727,-30.410035477019502,12.29857622329459,17.441399483711933,118.408,-0.10522940003592396,4
11.0862362999592,-19.008881527439456,-43.85992108290633,51.602063155766274,-22.70980025185553,8.237249136581843,14.653054269894014,118.412,-0.10122940003591907,4
10.312219958802743,-16.060435142746066,-46.21804078753691,50.989972045179144,-18.915526087390333,6.084176568524099,13.807633445167333,118.416,-0.09722940003592839,4
11.011006967856055,-20.485397683865504,-44.73197889791254,52.792204266341,-22.487718137180202,7.66110558268547,16.240777902075756,118.42,-0.0932294000359235,4
12.53626866742862,-29.447373643625262,-40.411670355311465,55.99366244846832,-30.768419991861297,11.679447230170883,20.418085644730212,118.424,-0.08922940003591862,4
13.480150149363451,-36.41402512016739,-36.31406001464355,58.43931012077657,-37.37206146693734,14.921687469327303,23.258998862280958,118.428,-0.08522940003592794,4
12.797334591471328,-36.45506385665895,-35.09618517980269,58.61235255631684,-37.35266952884434,14.827292028492472,22.666939389025348,118.432,-0.08122940003592305,4
10.532054087901203,-29.761592813217952,-37.168538080238065,56.75389713315516,-30.711119569955216,11.286801986137341,19.068497256217533,118.436,-0.07722940003591816,4
7.6788757412218365,-20.775137091775793,-40.81717665462793,54.4281903007576,-21.676344876771992,6.3691115243419745,14.79248105685435,118.44,-0.07322940003592748,4
5.45470705495548,-14.339088730870053,-43.82031165490939,53.0875892418807,-15.040966791031801,2.5728131277761395,12.08525775219896,118.444,-0.0692294000359226,4
4.631055557652222,-12.550678868236343,-44.9378948177178,53.018732199649996,-13.038217952663866,1.259460716845808,11.61754316447001,118.448,-0.06522940003593192,4
5.343947460096167,-14.673717210630453,-44.13808579211218,53.53156729974948,-15.07594762081229,2.3893530795392897,12.622882784170029,118.452,-0.06122940003592703,4
7.3011681512923445,-19.261484766606927,-41.83675009700802,53.986249930700744,-19.649530076561344,5.2943231826935735,14.166023675489667,118.456,-0.05722940003592214,4
10.039257783578229,-25.804043941462922,-38.27068341593853,54.51112935177938,-25.97747104481443,9.403581473628822,16.098229793229475,118.46,-0.05322940003593146,4
13.01990624186885,-34.31882259978907,-33.663037511605644,55.71992268432634,-33.82608828950122,14.246691609197955,18.82142786550282,118.464,-0.049229400035926574,4
15.649565164073602,-43.85258954584797,-28.744841765928932,57.83944067860336,-42.287618478098075,19.060486138033326,22.335557809164698,118.468,-0.045229400035921685,4
17.40784278106902,-52.06416623435918,-24.734847351671192,60.255711985047625,-49.41200016878508,22.784352817091328,25.763106171607454,118.472,-0.04122940003593101,4
18.095788199612308,-56.738646521370356,-22.536816173108328,61.99762309271855,-53.472007254910295,24.699650979609533,27.954407677448607,118.476,-0.03722940003592612,4
17.995651843666764,-57.78845886011951,-21.915800595590593,62.6562974667832,-54.620403802255694,25.107470484068738,28.565243463447093,118.48,-0.03322940003592123,4
17.737156304140534,-57.54770799867662,-21.605563702789166,62.76363477272271,-55.034173981861976,25.236230875439766,28.45042373102477,118.484,-0.029229400035930553,4
17.908017238082188,-58.80159115185292,-20.404251898315813,63.211768090399524,-57.095315150879294,26.28857141535666,28.89280145720966,118.488,-0.025229400035925664,4
18.686701279890922,-62.322208293472585,-18.25724299740301,64.2981920660445,-61.223872878613655,28.438374962435603,30.380055861118212,118.492,-0.021229400035920776,4
19.772417509628585,-66.27544727074296,-16.252306494639946,65.3861120792077,-65.47729067206366,30.718027901985206,32.12848694662509,118.496,-0.017229400035930098,4
20.643005367180532,-68.07101828364061,-15.505006845746218,65.55258776657048,-67.37644774401338,31.91935081373395,32.83752892591526,118.5,-0.01322940003592521,4
20.91575864634674,-66.84136974177586,-16.039672905942545,64.58280245079692,-66.23683274936427,31.6653213340734,31.95399296586563,118.504,-0.009229400035920321,4
20.542371517086163,-64.1504221088558,-16.79973910482573,63.29071959386956,-63.76141507096879,30.654280553286238,30.224204620408365,118.508,-0.005229400035929643,4
19.74669946550494,-62.320186216024496,-16.783751002983994,62.798503369372455,-62.332863197753255,29.889659305214288,29.00193827667007,118.512,-0.0012294000359247548,4
18.82724457916336,-62.11797704273717,-16.141072951317362,63.44756768707684,-62.68170057211121,29.68603555062954,28.979902749296016,118.516,0.0027705999640801338,4
18.01067017106807,-62.13070291611926,-16.070098428858593,64.40802521314573,-63.21110661040511,29.432797586613376,29.560414984555774,118.52,0.0067705999640708114,4
17.439564259393944,-60.42926270342738,-17.560245389062402,64.40317479814851,-61.65160323280049,28.333001682473128,29.465370585274677,118.524,0.0107705999640757,4
17.23689112640463,-56.84479673593675,-20.209342049666763,62.89937658298817,-57.47498607490161,26.379829527047672,28.013027624064637,118.528,0.014770599964080589,4
17.540206376488666,-53.58509462555729,-22.323202631202957,60.65916676792554,-52.772060528789446,24.60918654800175,25.871798093133737,118.532,0.018770599964071266,4
18.455555810862016,-53.539927694121616,-22.273241737754688,59.143713518702064,-50.741614538724605,24.361691377549715,24.593823263487128,118.536,0.022770599964076155,4
19.965144275962977,-57.8242882643545,-19.86914615934851,59.30777252731076,-53.13036526143768,26.208018719416753,25.342864162450205,118.54,0.026770599964081043,4
21.860903931387526,-64.77467817591797,-16.495199657489927,60.85887541872584,-58.85257640266088,29.47207657539051,27.930598310564896,118.544,0.03077059996407172,4
23.759445543977925,-71.2073008377577,-13.943967892696454,62.588395455428675,-64.87325453333918,32.714645850171145,30.962036414215607,118.548,0.03477059996407661,4
25.21322375729292,-74.71522324018805,-13.071807599738904,63.40381198425342,-68.44091882822367,34.70503572151417,32.90587820509011,118.552,0.0387705999640815,4
25.888278032264218,-75.03782672149124,-13.4520043110257,63.1212660812355,-68.75821241392548,35.080828570012194,33.157670762930515,118.556,0.042770599964072176,4
25.73442263398892,-73.61377128162428,-14.142351804007731,62.395283845330894,-66.94182232888949,34.29478763343267,32.273451301769015,118.56,0.046770599964077064,4
25.046978919564577,-72.11279378276225,-14.632230837310667,61.994402031152845,-64.72941631041903,33.10192959427516,31.33113038549935,118.564,0.05077059996406774,4
24.34710381963787,-71.4015768110983,-15.024073712494417,62.16644654290012,-63.28014553716827,32.1156744710052,31.076571227217784,118.568,0.05477059996407263,4
24.103929563846865,-71.58930375333735,-15.452819658342897,62.62125938780297,-62.914036767313405,31.687380490904175,31.543590736439654,118.572,0.05877059996407752,4
24.43657890788282,-72.55338586946317,-15.597655982770704,62.98717495740213,-63.48507756314939,31.93142291222877,32.28094263786955,118.576,0.0627705999640682,4
24.980455361013604,-74.00309298644915,-14.990109096317553,63.167823221008966,-64.55273056472643,32.62426138917453,32.773392676296005,118.58,0.06677059996407309,4
25.02999117336225,-74.9663864078739,-13.852648930343767,63.23314336751921,-65.08369362200612,33.02371538265271,32.61587903668961,118.584,0.07077059996407797,4
23.915014351158472,-73.57651392214485,-13.46906491736548,63.05369215868822,-63.3303334843578,31.975450490918142,31.431755323103314,118.588,0.07477059996406865,4
21.423853709415287,-68.00253452621537,-15.419367108532672,62.203007963685536,-57.65413602266172,28.55476823186126,28.8944077524477,118.592,0.07877059996407354,4
18.035854273166517,-58.199890174449955,-20.14241779267762,60.36804104786942,-48.09497144985129,22.95019498502796,25.08318911091497,118.596,0.08277059996407843,4
14.798190696968419,-46.98696254546001,-26.1061095804101,57.910777954150774,-37.36257590713055,16.846613138264573,20.90006624361692,118.6,0.0867705999640691,4
12.85426055379294,-39.07720065588896,-30.50405915326445,55.94449073501748,-29.928884006289206,12.744984757295809,17.9664077693364,118.604,0.090770599964074,4
12.838717537904193,-38.26598189243574,-31.108668908884905,55.664442466699526,-29.337861944449635,12.459931411608206,17.749421329558363,118.608,0.09477059996407888,4
14.488003808337828,-44.713076462268226,-27.847582378125544,57.3936894439632,-35.58055500080482,15.828830181840795,20.430690407056797,118.612,0.09877059996406956,4
16.752486456597534,-54.54290430307918,-22.823700287800076,60.17781052062479,-44.743260210142076,20.690919524819964,24.488648298979058,118.616,0.10277059996407445,4
18.40321546116554,-62.3244102393958,-18.770289872856925,62.37399231520399,-51.51842142788785,24.286877341067004,27.54903642270403,118.62,0.10677059996407934,4
18.758006004471117,-64.64718123103805,-17.21578929793144,62.82331210672788,-52.77842425431599,25.06751371375178,27.992562958334716,118.624,0.11077059996407002,4
18.00323290340059,-62.00725697777839,-17.806928143763685,61.641642376566686,-49.36581751292955,23.497623109475022,26.037504245029336,118.628,0.1147705999640749,4
16.85545218658607,-57.56663762841344,-19.171974866712652,59.95840652849665,-44.662348547222145,21.242176897550387,23.34492542971515,118.632,0.11877059996407979,4
15.844730459791354,-54.012527772432534,-20.367385329991055,58.85266615934746,-41.286694557918246,19.509999864499473,21.45921117670358,118.636,0.12277059996407047,4
14.859552209321683,-51.38671614047127,-21.53774696112472,58.45686342133626,-38.95523739112307,18.07890975250338,20.48437510955775,118.64,0.12677059996407536,4
13.395087465394626,-47.819688117406486,-23.275368380931017,58.03718912715967,-35.46739588003015,15.894593902750618,19.235581883062764,118.644,0.13077059996408025,4
11.294991040177347,-42.33475996404412,-25.468482211570752,56.9369755975581,-29.796528713115674,12.629075457295206,16.73872879369989,118.648,0.13477059996407093,4
9.249487615182037,-36.82731891682106,-26.933196532140656,55.43831036450203,-24.137031007394068,9.595217110575698,13.614531366096058,118.652,0.1387705999640758,4
8.458289310904156,-35.013107162717326,-26.332334352595257,54.65984771618772,-22.618144318362457,8.949071066712252,11.89637773987094,118.656,0.1427705999640807,4
9.636536901633795,-39.081204281529025,-23.539099421644078,55.53737920753055,-27.60787092748392,11.766058665611304,13.288199855881405,118.66,0.14677059996407138,4
12.244136399948303,-47.22278187177942,-20.03293418429316,57.854617844416794,-37.07949272450849,16.797704925990594,17.43874961022541,118.664,0.15077059996407627,4
14.735349989849489,-54.65846467120828,-17.75770327942107,60.29853024756178,-45.80423963440988,21.243004192046545,21.943523155581428,118.668,0.15477059996408116,4
15.73958376874274,-57.555612738653295,-17.392407039664363,61.557385971044745,-49.61351922161912,23.020096880700965,24.244472379448332,118.672,0.15877059996407183,4
15.18154010394248,-56.31888395443704,-17.697282586405322,61.4584027538578,-48.91771582116968,22.515209452381008,23.778730051830763,118.676,0.16277059996407672,4
14.313467806386543,-55.07139473739268,-16.700045895028463,61.05777969819822,-48.122978705627034,22.133230966674024,22.38994086678942,118.68,0.1667705999640816,4
14.57364569516841,-57.62198418732867,-13.727581386706738,61.56925537733726,-51.328225564917624,23.97008109247971,22.564808973967654,118.684,0.1707705999640723,4
16.266948498675635,-63.61211936213583,-10.352656558840346,63.13205145636698,-58.24147157389558,27.727086578320208,25.080160961508938,118.688,0.17477059996407718,4
18.26089187359766,-68.52154529513527,-9.218815019168991,64.59169004960151,-64.16883096919226,30.836516488812986,28.22009287148438,118.692,0.17877059996406786,4
18.981421346549862,-67.6490719335352,-11.690862644448456,64.51165135003329,-64.16068037648787,30.732559426185432,29.274982831702932,118.696,0.18277059996407274,4
17.805503730792875,-60.41239481065715,-16.479549428121075,62.465256414120695,-57.48684604827743,27.183281020466683,26.924749121675397,118.7,0.18677059996407763,4
15.592214736937542,-50.96928124956826,-20.587366526387758,59.40623750974515,-48.305476532202995,22.528981957104637,22.334690104371692,118.704,0.1907705999640683,4
13.900818081510605,-44.619273350056524,-21.797699168443504,56.81678195414491,-41.990380538095856,19.632494023792624,18.057258997147766,118.708,0.1947705999640732,4
13.645363363808693,-43.380731192364,-20.478652969576526,55.48893253330295,-40.620449625523925,19.46596562781515,15.879572262537677,118.712,0.1987705999640781,4
14.405234553856895,-44.777180950417716,-19.09625865431479,55.0792230581996,-41.75397810048397,20.52365948475681,15.619300608403186,118.716,0.20277059996406877,4
14.943797234853683,-44.675927410260314,-19.950858032765982,54.74479995910452,-41.32012035122613,20.457867304411035,15.800441295883179,118.72,0.20677059996407365,4
14.359818900287882,-41.193267337171505,-23.247987695071075,54.09306693307417,-37.55892360819506,18.259896894847348,15.287395912228254,118.724,0.21077059996407854,4
12.782674144052564,-35.92737472787971,-27.193693638443197,53.44252038914144,-32.208334035657835,14.935605472247197,14.16860239653956,118.728,0.21477059996406922,4
11.05430922290646,-31.673503216394604,-29.832791150771154,53.199239947409524,-28.116958170577018,12.219056402296689,13.15064696513013,118.732,0.2187705999640741,4
9.83474220512989,-29.2860289787424,-30.764966019828766,53.12825950389536,-26.04130126860599,10.77976505234078,12.349529505811141,118.736,0.222770599964079,4
9.048030086773158,-26.980831058335987,-31.160963925064888,52.41251657118367,-24.001134387748305,9.738260911766096,10.944121801426284,118.74,0.22677059996406967,4
8.146383687421721,-22.650957466986764,-32.26565129693602,50.52580359385092,-19.75058242822039,7.859639114404218,8.135364796466348,118.744,0.23077059996407456,4
6.821793616569979,-16.603466361319626,-34.01653852708574,48.01359824444479,-13.655191415519576,5.079713799638763,4.36009064327142,118.748,0.23477059996407945,4
5.396329056116986,-11.743292846501637,-35.149048837772625,46.274104549408655,-8.867842741793252,2.7498491934400238,1.3399016271018693,118.752,0.23877059996407013,4
4.518712968094129,-10.922520291724636,-34.57445589989418,46.405577434475056,-8.49494049044709,2.356377733179224,0.7112485463175134,118.756,0.24277059996407502,4
4.522960314521558,-14.113753636445153,-32.55338014960989,48.165193955102744,-12.54072498894128,4.03269758427157,2.4870069211004813,118.76,0.2467705999640799,4
5.117028959775555,-18.27048418912695,-30.473599874752452,50.06513179218713,-17.691271792335385,6.369323927908953,4.883871176343195,118.764,0.2507705999640706,4
5.692781387256799,-20.064045890689275,-29.496509079359882,50.59366673969808,-20.22403917976423,7.709418615443748,5.788727407414774,118.768,0.2547705999640755,4
5.913395625969472,-18.869048590641693,-29.45311731609258,49.48701216453231,-19.3002778012362,7.657527297608103,4.5645086198605895,118.772,0.25877059996408036,4
5.988394837621229,-17.18018100913189,-29.06829210475385,47.915228921343775,-17.571050495136017,7.362114666058972,2.553785183997787,118.776,0.26277059996407104,4
6.397251793288879,-18.162519722048867,-27.251331196917796,47.43716337166251,-18.623785516309688,8.355909489714543,1.8473117806104205,118.78,0.2667705999640759,4
7.373648822283713,-22.71720105499262,-24.178550578986528,48.67849019717686,-23.72080895029747,11.099797839602443,3.464623725213602,118.784,0.2707705999640808,4
8.660621954041721,-28.7393170635039,-21.16166328639813,50.88130268388496,-30.7753634129495,14.575060690190398,6.5593584347344756,118.788,0.2747705999640715,4
9.73844677197141,-33.05441926818659,-19.49594772500674,52.63907572655546,-36.28609511688449,17.20693930277386,9.252000308777102,118.792,0.2787705999640764,4
10.264387252755329,-34.08370798947771,-19.408284249065183,53.08901008738716,-38.27192182471482,18.177513739560936,10.233002983554307,118.796,0.28277059996408127,4
10.30357286522184,-32.85581933046527,-20.037349839550625,52.52224279961578,-37.58767802352839,17.94167324617797,9.713358282528706,118.8,0.28677059996407195,4
10.181327300076102,-31.71378964819725,-20.35728272896172,51.9818926670142,-36.722937807197994,17.608278349831313,9.022511867435332,118.804,0.29077059996407684,4
10.153472470095688,-32.1338717685891,-20.121791573772175,52.30860346264235,-37.458953117486374,17.88488405014272,9.367656476966907,118.808,0.2947705999640817,4
10.216765040198029,-33.61188266126068,-19.989290143776596,53.47117696086862,-39.50937972670295,18.555798399204527,10.866812131469084,118.812,0.2987705999640724,4
10.197374140351501,-34.37032674898,-20.803829143821538,54.66038511117954,-41.09711656141146,18.84962792831591,12.563885274366067,118.816,0.3027705999640773,4
9.987944433325945,-33.03328107020629,-22.741404135422577,54.95850980959084,-40.66893887029439,18.24049395597524,13.256675877031242,118.82,0.30677059996406797,4
9.702180401673187,-29.80645832013538,-25.067720788476915,54.01129618674749,-38.195224490611835,16.946989632948963,12.408937377854496,118.824,0.31077059996407286,4
9.619966703565579,-26.330976983391274,-26.670216957735843,52.24005844639842,-35.12293526763272,15.762400515675326,10.501703543120502,118.828,0.31477059996407775,4
9.965311652851371,-24.45181338207128,-26.901822805600027,50.521343620783654,-33.20771099580496,15.417450778523644,8.657241131317607,118.832,0.3187705999640684,4
10.661313919453097,-24.800462984330554,-26.09710931922171,49.59508556957971,-33.152076829640755,15.965857485139766,7.827392159020457,118.836,0.3227705999640733,4
11.221399610761054,-26.102185787370846,-25.42460085521936,49.57994137152082,-33.93484223617191,16.59380607099211,8.066481825488133,118.84,0.3267705999640782,4
10.893129429198833,-25.70343029897574,-26.201080578018928,49.89647423476313,-33.25175407812712,15.983292415745442,8.383368875414389,118.844,0.3307705999640689,4
9.06055260757286,-21.184477124040956,-29.093317652684025,49.679440902188254,-28.923429928941758,13.08330499906514,7.377926196840475,118.848,0.33477059996407377,4
5.726371383327707,-12.212021900022492,-33.66090796387991,48.452924768914094,-20.561472338191003,7.905700637758825,4.3494054120927865,118.852,0.33877059996407866,4
1.7389229435116131,-1.3497590499890337,-38.50676539685859,46.59422392863659,-10.396849828365314,1.829975029724081,0.09025237334068519,118.856,0.34277059996406933,4
-1.510336875052272,7.078483971916568,-41.991536875936404,45.16043833552082,-2.3991694534620422,-2.947069906081673,-3.3908091969049656,118.86,0.3467705999640742,4
-2.8472778415178452,9.673584475262176,-43.14150978446762,45.09232773461287,0.11471397181790094,-4.656399887203378,-4.235438668504092,118.864,0.3507705999640791,4
-2.0522537899164757,6.389788856599909,-42.204858946483235,46.37255143063625,-3.150610406078067,-3.1237029049295892,-2.2309142398287585,118.868,0.3547705999640698,4
-0.0050350553562297905,0.722579369332396,-40.46340995523053,47.88449323768866,-9.039981024404753,0.05202270558781956,0.8493307223826743,118.872,0.3587705999640747,4
1.9235715456243296,-2.753193978697677,-39.38154584302926,48.21475784425898,-13.093652268115408,2.574202097828986,2.5158606021300565,118.876,0.36277059996407957,4
2.7811908709724507,-1.678587058762125,-39.67249261669303,46.80791842043259,-12.75985467598256,3.0252953307293198,1.4965297293033628,118.88,0.36677059996407024,4
2.52650952199507,2.644255459709093,-40.96600691466768,44.476059442208204,-9.063558830883641,1.6961110600795435,-1.3133697384405714,118.884,0.37077059996407513,4
1.7570844649560624,6.8350549717409175,-42.31008000927586,42.75820592296239,-5.307323414441868,0.008071208578954762,-3.7410131445205983,118.888,0.37477059996408,4
1.0181352575927798,8.537299832450755,-43.056869653060915,42.652970883136824,-4.001939441671793,-0.8937627428741186,-4.2558341355735205,118.892,0.3787705999640707,4
0.39600675634360544,8.153196146181914,-43.35911284438547,43.860874344520134,-4.872849875535249,-1.0493886307845284,-3.1287258963403826,118.896,0.3827705999640756,4
-0.24046869177809838,7.675223848883721,-43.860972570913276,45.23013036465848,-5.768659156660425,-1.2697518267026948,-1.7655019674876875,118.9,0.3867705999640805,4
-0.6954846933633954,7.955055932620039,-44.91452851854287,45.95963927040145,-5.449904939411445,-1.9004825841637534,-0.9542944675399889,118.904,0.39077059996407115,4
-0.29232138674223557,7.347373159443041,-46.103473892281556,46.36424584280917,-5.314536324783654,-2.1183753692067566,0.11708797076202011,118.908,0.39477059996407604,4
1.5942163138860481,3.308900905514363,-46.565192938207176,47.42142316661834,-8.122596702716764,-0.603037696033201,2.9662869509384175,118.912,0.39877059996408093,4
4.787318707600645,-4.533314640715637,-45.82451752171664,49.53988497817298,-14.849394778186822,2.999422273065223,7.880600981780296,118.916,0.4027705999640716,4
8.141542656788864,-13.038386801690168,-44.33038906652749,51.82228511637229,-22.883148978982838,7.317193432017426,12.97090364202194,118.92,0.4067705999640765,4
10.266451352115862,-17.629614485119347,-43.144089064694256,52.667627343660186,-27.67299097507446,10.112425445597385,15.400190383514653,118.924,0.4107705999640814,4
10.570058727270819,-16.12604227622456,-43.037179398632794,51.238496146421824,-26.56736630700586,10.098686812719825,13.823346295450772,118.928,0.41477059996407206,4
9.674212865943097,-10.749772324767084,-43.83684140932716,48.39599844255094,-21.26924650063362,8.040111487660841,9.745537438572992,118.932,0.41877059996407695,4
8.799190948245302,-6.287622198837537,-44.63115678705404,46.133150478010066,-16.474537689443526,6.062228279264236,6.398746969815513,118.936,0.42277059996408184,4
8.683905617734604,-6.005937951674247,-44.62892933733101,45.9494472814674,-15.857179627145712,5.79104728268992,6.067646734259047,118.94,0.4267705999640725,4
9.048255242802822,-9.077420148956293,-43.857750482318075,47.641283636548295,-19.111446578197423,7.0534034959530265,8.303674834167662,118.944,0.4307705999640774,4
9.064113335056803,-11.823992575789548,-43.072395634031935,49.61138602972968,-22.722843980698116,8.303403957846058,10.640328867887089,118.948,0.4347705999640681,4
8.30788293017863,-11.417101752560972,-43.025294821304286,50.370818627029536,-23.528023269133566,8.249613828562888,11.042104457227794,118.952,0.43877059996407297,4
7.213812976187367,-8.409856575579617,-43.83309615298572,49.80699591746182,-21.5234219763053,7.034949821852267,9.71061598936919,118.956,0.44277059996407786,4
6.58938945940117,-5.800616219411029,-44.9986215658882,49.077248692825464,-19.33489293516582,5.8715018192608,8.595990748977638,118.96,0.44677059996406854,4
6.736177132611596,-5.837320485009466,-45.94729670619359,49.34435801799308,-19.20836465627418,5.652498187052646,9.259948509819937,118.964,0.4507705999640734,4
7.129609336888642,-7.906279853738618,-46.464391122718176,50.645327604495485,-20.77789342636611,6.0699842854343515,11.30364317600446,118.968,0.4547705999640783,4
7.019214864924705,-9.527703849111722,-46.63896559164718,51.951977968076115,-21.83157460383909,6.141793947730134,12.885257263867071,118.972,0.458770599964069,4
6.3243619993496125,-9.186944191558103,-46.52803484340032,52.246704966871455,-21.032166532241096,5.494878268484447,12.68120033249404,118.976,0.4627705999640739,4
5.853065878362183,-7.918910738514366,-46.039836318312794,51.47543089319251,-19.532869094054632,4.935662871339962,11.22745650798717,118.98,0.46677059996407877,4
6.55105506770485,-8.049901332946284,-45.18731285490689,50.478461577621765,-19.740644678873554,5.63388001962219,10.31446220177794,118.984,0.47077059996406945,4
8.512772562352339,-10.608248660610046,-44.32236399675767,50.103082711344854,-22.640374623521414,7.793830905599677,11.161301101592281,118.988,0.47477059996407434,4
10.78451673455114,-14.293666528463033,-43.91311079881019,50.48570527449977,-26.670706819406174,10.300964007888917,13.306298129739599,118.992,0.4787705999640792,4
12.214900251795962,-17.097130058976376,-43.9876649445531,51.186064897654724,-29.429696702723618,11.809791780589109,15.303734776213316,118.996,0.4827705999640699,4
12.526377742258736,-18.678240654253592,-43.89888455699649,51.87535246036827,-30.342003893590398,12.148733921368859,16.36866498084463,119.0,0.4867705999640748,4
12.513875576086546,-20.71932294484791,-42.866584544284486,52.71802646243828,-31.279335998191673,12.488834586984366,17.144506861814897,119.004,0.4907705999640797,4
13.136967760464463,-24.708971252391812,-40.91333922885197,54.02030935401437,-34.30320924828877,13.989953677614137,18.778288937439605,119.008,0.49477059996407036,4
14.410906599718802,-29.568987956654873,-39.21333036173223,55.611770922154186,-38.904930966690266,16.306560261824,21.358011501380417,119.012,0.49877059996407525,4
15.24851528505035,-31.948946309607145,-39.28289654844429,56.757653421246616,-41.86090680727179,17.60778855708039,23.47879240194588,119.016,0.5027705999640801,4
14.472349478790354,-29.26950256190998,-41.58924948534608,56.795894392194555,-40.167462772729934,16.26129840820038,23.496672540800716,119.02,0.5067705999640708,4
12.025824241231817,-22.53558892879803,-44.89384482543642,55.83625894463576,-34.19010060012329,12.559104954237062,21.19834621425313,119.024,0.5107705999640757,4
9.174578462967979,-15.891787209233618,-47.1094540276968,54.72395662393236,-27.719505319690168,8.697011072910286,18.125200396809976,119.028,0.5147705999640806,4
7.466994557935106,-13.088752020806094,-47.029789876407214,54.23807629036612,-24.67302433326566,6.91247701148715,16.174018370690614,119.032,0.5187705999640713,4
7.442268265536844,-14.23145796464441,-45.36382603826381,54.33889505948142,-25.6221936771492,7.547271326113576,15.889043028925599,119.036,0.5227705999640762,4
8.309096410836,-16.010247995168957,-44.06815619241521,54.26163593195326,-27.566776636631538,8.911223181956306,16.163225299470177,119.04,0.526770599964081,4
8.839310982375476,-15.14567599743553,-44.56101999161775,53.36606586474161,-27.10596733111315,9.03582449389157,15.571461979157814,119.044,0.5307705999640717,4
8.530499904781447,-11.545515719067488,-46.48682469739044,51.83901287504132,-23.737346677297054,7.533449177932372,13.866725135999872,119.048,0.5347705999640766,4
7.891017787191093,-8.027213828116981,-48.185650232937796,50.49783133554913,-19.980258270137952,5.730487446667812,12.073785761784722,119.052,0.5387705999640815,4
7.660551537471542,-7.046164927044279,-48.38213556731143,49.91253332597318,-18.382566838089748,5.051911795210451,11.185870673790301,119.056,0.5427705999640722,4
7.881538643913582,-7.964382669065593,-47.44356469525419,49.81218909492279,-18.69994005088666,5.421616549780731,10.992543126589352,119.06,0.5467705999640771,4
7.843961819686425,-7.779650766086842,-47.00362111791296,49.446087210726034,-18.27250714291251,5.372634587094584,10.393095409405282,119.064,0.5507705999640677,4
6.957414673263473,-4.566396578707491,-48.34419771209924,48.52753902556802,-15.18478682491615,3.739985238538807,8.87044217835261,119.068,0.5547705999640726,4
5.596555536118516,0.007411998258196718,-51.09477415430063,47.714876055353166,-10.816941122793775,1.1468987398644008,7.445972947500131,119.072,0.5587705999640775,4
4.97412602785311,1.8240661478305102,-53.443869586798925,48.02859582121309,-8.99193772492267,-0.29782201384926626,7.906841328674186,119.076,0.5627705999640682,4
6.097890353096445,-1.8830852639117992,-53.597748574789456,49.731241149583965,-12.442650010814392,1.153105893915214,10.941246452920057,119.08,0.5667705999640731,4
8.81342196816442,-9.790275924605655,-51.13147472954479,51.82659044759038,-20.088526564687104,5.284265693144901,15.085999109937886,119.084,0.570770599964078,4
11.856641520671932,-17.463569099411913,-47.14010806125365,52.77730740371871,-27.796511147964804,10.06819962796405,17.698039756275694,119.088,0.5747705999640687,4
13.847009156984205,-21.044900569087492,-43.298302760908356,51.83139312930657,-31.824692225326782,13.32796367257278,17.161529596459093,119.092,0.5787705999640735,4
14.275329186982852,-20.10898306961635,-40.81635626913093,49.708120848101,-31.60710827837041,14.282759223468382,14.266238358565483,119.096,0.5827705999640784,4
13.636731523720629,-17.21479436816143,-40.08305114364772,47.977637190982946,-29.418834463326384,13.652388675908295,11.449922584523682,119.1,0.5867705999640691,4
12.752507496026919,-15.018956377646605,-40.937249511473624,47.70048481406698,-27.65764344739711,12.527695471955237,10.633161554468217,119.104,0.590770599964074,4
12.055468259003591,-13.971158719926494,-43.00181405707839,48.5669816976796,-26.63928642781887,11.322418725388063,11.667390522752505,119.108,0.5947705999640789,4
11.482337895162063,-12.589577837272365,-45.76943070737932,49.26664789090713,-24.891434809645595,9.763960991307526,12.737496576920577,119.112,0.5987705999640696,4
10.876246837038241,-9.506608752632406,-48.64268443859566,48.668823191557046,-21.19370140812719,7.631781195712009,12.166143375047973,119.116,0.6027705999640744,4
10.303069828373559,-4.9129419476597,-51.18485495277711,46.72246710866616,-16.01147635709851,5.236515902962167,9.847220417533462,119.12,0.6067705999640793,4
9.92088929356319,-0.10822748153231398,-53.40523002708912,44.3580558189092,-10.980404021503324,3.1288357486883163,7.086080668964065,119.124,0.61077059996407,4
9.65432295668146,3.9204977144175945,-55.640668226116134,42.63178338844067,-7.322703915475527,1.5172895434732736,5.239478538578684,119.128,0.6147705999640749,4
9.17126434298117,7.133289556832987,-57.97698336018741,41.946467283582535,-5.023272251263382,0.17225454218078054,4.576979885873337,119.132,0.6187705999640798,4
8.267813483216507,9.77416399160503,-59.80107073636888,41.943969354166896,-3.4346674226426592,-1.0860970251179862,4.335888355141129,119.136,0.6227705999640705,4
7.2236682401401255,11.553880537456228,-60.14228846869308,41.96828946334172,-2.273898180831881,-1.991966442631093,3.662314851217994,119.14,0.6267705999640754,4
6.656053048698114,11.898177363766374,-58.67699254014498,41.570796891953336,-1.7151130878371446,-2.1115215318067397,2.3785998553710517,119.144,0.6307705999640802,4
6.944236151076666,10.98290109872318,-56.39989902803614,40.683809378387586,-1.6223801064791687,-1.5121078942007697,0.923440400528669,119.148,0.6347705999640709,4
7.81013647787559,10.104234273083808,-55.06144345357118,39.510724684406895,-1.1634727003082397,-0.9601293264595617,-0.24004995502729934,119.152,0.6387705999640758,4
8.524686472908689,10.593745528664995,-55.6458641066477,38.37889267231804,0.4086366517693731,-1.2464517803690374,-1.013645438644349,119.156,0.6427705999640807,4
8.559579154055879,12.293955607296336,-57.295158508499135,37.654679495696975,2.6012169297325705,-2.283164570672055,-1.5311081076105595,119.16,0.6467705999640714,4
8.021863365457563,13.414228743446564,-57.893521860907406,37.626852267774055,3.7015347808161483,-3.030714350385025,-1.840242946201893,119.164,0.6507705999640763,4
7.433727921230228,12.265213865733909,-55.999061885422584,38.31294342590524,2.3639515418146804,-2.5138390107971205,-1.8629358584643467,119.168,0.6547705999640812,4
7.123655625588791,9.224295281079659,-52.37733983674952,39.35354941802209,-0.7418457940136647,-0.9518644664254573,-1.6304502275018937,119.172,0.6587705999640718,4
6.914927864676016,6.725721336533004,-49.56865066252386,40.20367121781538,-3.162738273067931,0.2626497411522874,-1.3755812245848875,119.176,0.6627705999640767,4
6.462790818094577,6.947315973091184,-49.707383335317225,40.564818487876515,-2.931054612931694,-0.09942765646107067,-1.237059674352272,119.18,0.6667705999640816,4
5.850781277994297,9.37355430967828,-52.549824156698605,40.6841900227538,-0.7462875424513582,-1.7221729316535477,-0.8902409796228415,119.184,0.6707705999640723,4
5.720652640234853,10.862625270962893,-55.61058743343461,41.16946252849195,0.3290387547257556,-2.81504498960537,0.3438532286245494,119.188,0.6747705999640772,4
6.680779664481365,8.521411949816478,-56.389703164132584,42.3957237877419,-2.2492566154684583,-1.7727925382110186,2.813836915772338,119.192,0.6787705999640679,4
8.550316961428537,2.7800116714639516,-54.668465752298296,44.024988265814386,-7.68001537690692,1.10049306028809,5.892671170210281,119.196,0.6827705999640727,4
10.280542049870492,-2.4618573989108565,-52.70707049891951,45.1443898548828,-11.983370908021593,3.5804291833852186,8.146937717713461,119.2,0.6867705999640776,4
10.788805548404271,-3.1316729008333426,-53.098186902674186,44.99920338610025,-11.420482572400962,3.4558146545003594,8.40651878690364,119.204,0.6907705999640683,4
10.005055449573655,1.1168118242144862,-56.23668510194278,43.71637607758749,-6.204753152827353,0.7163718636727882,6.886823039721734,119.208,0.6947705999640732,4
9.113928744660704,6.073488454829455,-59.76726464445644,42.34642534408099,-0.9530234187099346,-2.1009644309140425,5.287409950509285,119.212,0.6987705999640781,4
9.65401201686618,6.236756424061835,-60.56882236513294,42.108965939017374,-1.132181718364719,-1.899761359303273,5.601031062855566,119.216,0.7027705999640688,4
12.205210071839801,-0.5497366094702484,-57.50104728689354,43.43477065305205,-8.452905097181363,2.326796059641206,8.536912209012103,119.22,0.7067705999640737,4
15.83319088861743,-11.174651985989371,-52.437661684646244,45.61418523451503,-19.283783562511772,8.547159752023962,12.90156135799098,119.224,0.7107705999640785,4
18.819062974795457,-19.800278895286148,-48.66743444898682,47.36961252610014,-27.57474453366149,13.332208673574492,16.521573703464377,119.228,0.7147705999640692,4
20.05487791474529,-22.680417913671782,-48.10085655963839,47.88386485912307,-29.7946571814431,14.67052727686015,17.96666160402477,119.232,0.7187705999640741,4
19.88713136100351,-21.083688271476102,-49.735559231663416,47.42125069616981,-27.61323330700457,13.507938658172957,17.616160094797824,119.236,0.722770599964079,4
19.687204971550294,-19.861157782089048,-50.655386830477184,47.023041883898806,-26.072961562910947,12.714668004651323,17.164591315376782,119.24,0.7267705999640697,4
20.5563216020836,-23.00599741724855,-48.60858778702928,47.54774058894065,-28.94765293000828,14.448453649697615,18.009722293564256,119.244,0.7307705999640746,4
22.311008987678864,-30.071116589680113,-43.92895782085387,48.880163004464784,-35.34376139477499,18.22400674267508,19.928657070490228,119.248,0.7347705999640795,4
23.60870489463781,-36.42744928521689,-39.25965295191442,49.980792830855,-40.379998379177664,21.291653680828702,21.185949209987445,119.252,0.7387705999640701,4
23.06382989567096,-37.002021529117705,-37.45400098797062,49.72951239792502,-39.21421936097342,20.901021887572444,19.97587769689332,119.256,0.742770599964075,4
20.38516063186798,-30.307924750248773,-39.443450119205664,47.85601679735753,-30.958743107821828,16.499299595355644,15.969640952695098,119.26,0.7467705999640799,4
16.615581008450373,-19.574816859387116,-43.68169140589974,45.19902228556595,-19.3682300709727,10.12736064009822,10.682774402145004,119.264,0.7507705999640706,4
13.354924147954604,-10.349226441890108,-47.36651956256219,43.11495666145799,-10.034867420327336,4.876855767317926,6.403876848049121,119.268,0.7547705999640755,4
11.658933025811844,-6.711763020193528,-48.316770608543585,42.54803419881368,-6.5760845302223006,2.785489363288263,4.612161571045642,119.272,0.7587705999640804,4
11.471579639389628,-9.009137899785692,-46.144408575041744,43.494024022368315,-8.730093785657054,3.7683603692312575,5.149676229495304,119.276,0.762770599964071,4
11.920052980091087,-14.420570425302913,-42.146237482849386,45.19488827073271,-13.370711486484522,6.140223229137079,6.682354914675966,119.28,0.7667705999640759,4
12.102290507068842,-19.381496337182984,-38.30463492678641,46.782411438435204,-17.110540906744383,8.022428997787387,7.889541227422356,119.284,0.7707705999640808,4
11.699875898215659,-21.783762164368735,-36.19242956649804,47.79382677071707,-18.31126437952393,8.469712587508086,8.324040853949901,119.288,0.7747705999640715,4
11.013070607369478,-21.569307127844446,-36.34840961374429,48.21961159184814,-17.32112130475195,7.663274436019067,8.342881411104004,119.292,0.7787705999640764,4
10.533346830559488,-19.887661842814133,-38.248330973683366,48.22520529879566,-15.399521011652515,6.362817392655093,8.414144306139821,119.296,0.7827705999640813,4
10.49721052208128,-17.972672588204397,-40.71757236058187,47.93896747941964,-13.607611060422007,5.258530021519669,8.603147986187711,119.3,0.786770599964072,4
10.786541751404494,-16.670776465734,-42.550143409332534,47.51511942070171,-12.5005184341616,4.695885416634759,8.72389172048719,119.304,0.7907705999640768,4
11.185264125115387,-16.625623735641035,-43.06993405709462,47.3034379213433,-12.463607909689403,4.78533895386212,8.88512470210427,119.308,0.7947705999640817,4
11.68864950568669,-18.473466726017715,-42.36460608882678,47.80369620957273,-13.983745592786407,5.601823399331197,9.727649293040319,119.312,0.7987705999640724,4
12.536468344858482,-22.559815999361664,-41.056942865054715,49.317459103750195,-17.406183417873866,7.209124555235629,11.959890278445954,119.316,0.8027705999640773,4
13.90857465280169,-28.359422358541014,-39.77743385130228,51.58312995882548,-22.383073187711393,9.4852063341294,15.543018451798131,119.32,0.806770599964068,4
15.555681034699079,-34.2514359966678,-38.74911723565736,53.78749547825821,-27.60840034587191,11.941948003137172,19.323829062102625,119.324,0.8107705999640729,4
16.752526678333716,-38.1107116796658,-37.81589821065966,55.044240856037426,-31.24683590963259,13.774461009319522,21.60221725626741,119.328,0.8147705999640777,4
16.72889413605436,-38.493660955390425,-36.84016081899867,54.9906201374948,-31.909542222203374,14.224769116781813,21.299080606261505,119.332,0.8187705999640684,4
15.312730717731522,-35.6229589228109,-36.02395969690002,54.0067163616058,-29.56559289286093,13.09395007259126,18.799114360643287,119.336,0.8227705999640733,4
13.259041031937048,-31.415050430043568,-35.761819222272095,52.87031700002685,-25.74368759855081,11.050261139362545,15.74093807954005,119.34,0.8267705999640782,4
11.904105858685309,-28.444343345308607,-36.111819660330795,52.151136514476136,-22.7998481218366,9.42495031240746,13.875818441907128,119.344,0.8307705999640689,4
12.301493038757359,-28.500100182667946,-36.42562494287603,51.86665916563766,-22.633588277565195,9.50191187264,13.88924932607419,119.348,0.8347705999640738,4
14.45703370671353,-31.67660631263129,-35.62521284123636,51.664932258101814,-25.62930156487573,11.707201518713124,15.101953235214928,119.352,0.8387705999640787,4
17.27011045696669,-36.535833018781005,-33.03714324608584,51.31103038371735,-30.495962442664364,15.267676617453235,16.220121249393948,119.356,0.8427705999640693,4
19.26742579089496,-41.12478204575145,-29.108271522369346,50.991476312680916,-35.10980688933028,18.640550588221746,16.44340776565346,119.36,0.8467705999640742,4
19.59338937165514,-44.103851399848566,-25.310147560741154,51.151816300515215,-37.80604287398558,20.46942182127245,16.005414341132475,119.364,0.8507705999640791,4
18.52212264928433,-45.30414444357548,-23.17546406593038,52.04260879764557,-38.28752681955825,20.418530161094505,15.783873721039713,119.368,0.8547705999640698,4
17.149839919567306,-45.53782581212145,-23.16888267156265,53.42518232358756,-37.62140801391043,19.315409110462536,16.437685143977138,119.372,0.8587705999640747,4
16.57079819995413,-45.97312193177361,-24.298124766249465,54.72471463657345,-37.43415188816773,18.540238808160797,17.869646941502435,119.376,0.8627705999640796,4
17.190716490421856,-47.51096825028191,-24.810820606881745,55.48484245738891,-38.90245169843054,19.12893756796161,19.419744039821847,119.38,0.8667705999640702,4
18.630702269777036,-50.40913063173389,-23.45911696702713,55.696981840226634,-42.15045708496409,21.199165313978774,20.491855259742692,119.384,0.8707705999640751,4
20.156007617834902,-54.18520961849429,-20.373414618827645,55.710970216378655,-46.28823108870989,24.00165266259602,20.978224829222242,119.388,0.87477059996408,4
21.197371780721788,-57.775775975640535,-16.923568386452594,55.838107425756725,-49.916185059666454,26.440223215505274,21.139826999775813,119.392,0.8787705999640707,4
21.58369553283791,-59.94581409363433,-14.74881993735715,56.03769067231064,-51.75330019376434,27.653767433943543,21.172780585663723,119.396,0.8827705999640756,4
21.436320797312078,-59.85750996641902,-14.725780378920845,55.976293846760875,-51.126149540939174,27.33726105013736,20.959564192068722,119.4,0.8867705999640805,4
20.945677249263877,-57.541200207739344,-16.569666516778945,55.38491596615189,-48.208597691518406,25.742197803924324,20.24667339669658,119.404,0.8907705999640712,4
20.258166000513643,-53.97829317411637,-19.17768686487333,54.37126706440295,-43.99887218517974,23.49855042034384,19.026868738909002,119.408,0.894770599964076,4
19.52202781221138,-50.72589196493505,-21.285427132995444,53.41004271305543,-40.05899705961101,21.42002138963287,17.71822424264183,119.412,0.8987705999640809,4
18.98188517346818,-49.308884016556526,-21.952236951696577,53.03532516957861,-38.065357971341754,20.341759740037762,16.96750885651032,119.416,0.9027705999640716,4
18.986287913824793,-50.68133048695407,-20.74945776772922,53.49429648518344,-39.24101822695396,20.928221405043388,17.263000677585644,119.42,0.9067705999640765,4
19.84780234708183,-54.87330225774977,-17.845061029140243,54.60060503480607,-43.77376784236635,23.38905306472836,18.65467068264011,119.424,0.9107705999640814,4
21.59751497577174,-60.78554218399126,-14.115490029733968,55.832226629837955,-50.4113162554678,27.1745532138248,20.708053649758536,119.428,0.9147705999640721,4
23.773323864933175,-66.22617741732722,-11.094058609276486,56.570225992190736,-56.54911738753078,30.894304984429507,22.631498572581073,119.432,0.918770599964077,4
25.44127179925189,-68.51019532005132,-10.442102604768307,56.36861818299444,-59.10449839705629,32.72869312250095,23.518213217128636,119.436,0.9227705999640818,4
25.585451198127398,-65.77270698177152,-12.9835981607242,55.18743974361679,-56.08325582350526,31.343132640318977,22.723537383937796,119.44,0.9267705999640725,4
23.757084910851045,-58.43844882544426,-17.911185062929643,53.497437964584,-48.076790402681134,26.859315088853933,20.31258632676605,119.444,0.9307705999640774,4
20.57140086679106,-49.65670819951435,-22.935175540378257,52.12433212971001,-38.531406066098775,21.151791957449653,17.275764852040666,119.448,0.9347705999640681,4
17.577421564906125,-43.843278891751766,-25.561618259938097,51.798543237942674,-32.12849812748979,17.003986079465292,15.153444396865567,119.452,0.938770599964073,4
16.397248641623477,-43.89565289139312,-24.724866343259944,52.6342937133698,-31.965444230198056,16.458224017001577,15.096197092856244,119.456,0.9427705999640779,4
17.64309469023553,-49.060690440833895,-21.52399464789416,53.950652284562906,-37.44438116485154,19.457169579669195,16.978149699111984,119.46,0.9467705999640685,4
20.44334169045753,-55.35498816403177,-18.38108298618585,54.69128140742799,-44.62922212234075,23.867438879597533,19.363231295075305,119.464,0.9507705999640734,4
23.046055210443164,-58.54235473008784,-17.199153162596346,54.222721224549275,-49.08125529641394,27.012109997706073,20.541876756399613,119.468,0.9547705999640783,4
24.112266114786046,-57.42336567478237,-17.984230530668142,52.89272146075223,-49.11129092458308,27.60647075669338,19.907428797801924,119.472,0.958770599964069,4
23.681136661600284,-54.684508841759275,-19.06625654594079,51.836708966739344,-46.848343066396986,26.56793273937007,18.513330086387324,119.476,0.9627705999640739,4
23.00208448365186,-54.49373939557563,-18.710176881719516,52.123469589756446,-46.21608938515349,26.03939121845813,18.255060370582214,119.48,0.9667705999640788,4
