Fz,FC3,FC5,F3,FC4,FCz,Cz,Time,t_rel,idx
6.997758850979582,-17.920268408321633,-36.299084647882246,54.12310507814622,-31.696589443047788,11.546799494640704,13.248279075485174,153.204,-1.9989244999866855,5
6.510496628632354,-11.095516070772392,-39.195602189076716,50.99987324127648,-26.173996099583412,9.297436713873699,9.657307775650022,153.208,-1.9949244999866949,5
5.865373866297377,-5.336345228640199,-40.740366783719814,48.029668538080166,-20.849474251458876,7.23515199535786,5.795991864083522,153.212,-1.9909244999867042,5
5.249238149857464,-3.6003147880997237,-39.75804530577761,46.77067451251588,-18.680897788360006,6.523336216839469,3.4960090030245525,153.216,-1.986924499986685,5
4.7784827212053935,-6.013546349945736,-36.81863217896017,47.64390326782194,-20.523905900992947,7.401404983853973,3.5322934570175506,153.22,-1.9829244999866944,5
4.3188378579179485,-9.547601282787143,-34.05661770750277,49.62312744509446,-24.154975775870838,8.785874541008601,5.031354922139762,153.224,-1.9789244999867037,5
3.6185026804483593,-10.463114691320536,-33.54365552145122,51.06184295114232,-25.992089597176967,9.105040269256365,6.213473909101716,153.228,-1.9749244999866846,5
2.6167124053921285,-7.4550511272704645,-35.51797634551061,50.96633157328022,-24.115470950890856,7.6883584092879875,5.81709603571164,153.232,-1.970924499986694,5
1.586875786487969,-2.689537083000976,-38.079606265594485,49.65274377733383,-19.869277317248738,5.415690430697745,3.983110671324683,153.236,-1.9669244999867033,5
0.9298442068525539,0.24411983952563787,-38.77994212947547,48.28258986773934,-16.52295478198398,3.94341492743818,1.902928069903771,153.24,-1.9629244999866842,5
0.783107021227961,-0.31495191175511356,-36.83847369744531,47.74322285162409,-16.138052645045164,4.134569914690533,0.6305784667030293,153.244,-1.9589244999866935,5
0.8176922229480501,-2.4312686658491613,-34.03772721203674,47.874366924864006,-17.494107955514764,5.123151180325067,0.14789350526356024,153.248,-1.9549244999867028,5
0.46605766380966734,-2.17325254193653,-33.373632040828895,47.7028801920243,-17.09581741599514,4.970748681321778,-0.4969845383951884,153.252,-1.9509244999866837,5
-0.5362704258340233,2.7313192937357673,-36.458346610836045,46.45995195656205,-12.584776061218818,2.4916524557338136,-2.1035306081427194,153.256,-1.946924499986693,5
-1.7178792986878029,10.237582265734115,-41.84032878641584,44.479116293801994,-5.631159057233967,-1.2890448310044826,-4.238286586194,153.26,-1.9429244999867024,5
-1.968461146203122,14.736786348360848,-45.76965349863003,43.16083326200208,-1.564015926719385,-3.4313363007326605,-5.164152738077707,153.264,-1.9389244999866833,5
-0.23394967696356447,10.981864656764927,-44.961796269839354,43.95772165968882,-5.591673650724969,-1.146227687094308,-3.0059390318315153,153.268,-1.9349244999866926,5
3.612544366926323,-1.6770153660262137,-39.21741653397098,47.16301156395364,-18.417629974790277,5.878110292515386,2.6583956513921376,153.272,-1.930924499986702,5
8.4043914133325,-18.128134634285594,-31.76873487152513,51.504158144734966,-34.89649881084738,14.80560762454034,10.079211134050311,153.276,-1.9269244999866828,5
12.242755536005413,-30.63289468477253,-26.992233543168872,54.94706265458194,-47.198717000502285,21.384952996031547,16.249074041824777,153.28,-1.9229244999866921,5
13.717896789430467,-34.13914083494706,-27.247094567708473,56.138956822723976,-50.31188504635024,22.911132119052137,18.9301347177992,153.284,-1.9189244999867014,5
12.902564260906601,-29.706843824593392,-31.33064994958262,55.34062777266236,-45.55383901952583,20.112483151639974,18.235657608492925,153.288,-1.9149244999866823,5
11.26717556618733,-23.21516330541723,-35.74301614950424,54.05007867617866,-39.116395937025395,16.37784502383544,16.37947612574546,153.292,-1.9109244999866917,5
10.479245811148399,-20.266687444030747,-37.6532452903715,53.594889828514916,-36.69332379852886,14.87838228979485,15.66073860347298,153.296,-1.906924499986701,5
11.03259747834609,-21.50462252712658,-37.06907453779279,53.90009054029365,-38.68645379322939,15.968428866790475,16.359033972718542,153.3,-1.902924499986682,5
11.90279045805551,-22.429885372632352,-36.43331445860723,53.565905428783715,-40.19676155322825,17.1121905575156,16.479074940113005,153.304,-1.8989244999866912,5
11.588486352243068,-17.990856374570935,-38.119926481881926,51.26633537029526,-35.91199482514765,15.427904848279915,13.740051110782273,153.308,-1.8949244999867005,5
9.631437187580643,-7.857421582726148,-42.13569854422937,47.23471595790823,-25.531789480706863,10.57314714317244,8.085609319001083,153.312,-1.8909244999866814,5
7.189847631661137,2.5854005789399843,-46.108610255842635,43.4020928258394,-14.653934485428456,5.292324722727847,2.2928789821027284,153.316,-1.8869244999866908,5
6.0566295921745095,6.735645856020888,-47.530888782817726,41.90508505100066,-10.045103297259082,3.0257777667672703,-0.14714618588649858,153.32,-1.8829244999867,5
6.986645736446513,2.8003282800957643,-46.133364199483914,43.21730744526711,-13.48338089928679,4.733257292394431,1.879206344566889,153.324,-1.878924499986681,5
8.92410682539436,-4.324471854865584,-44.14593697678952,45.635428511760765,-19.942749708134414,7.9238280626545015,5.929795139979907,153.328,-1.8749244999866903,5
9.92717293536769,-7.329647099810694,-44.194906377387305,46.70782618956393,-22.0399885294826,8.896444311048018,8.033098570700977,153.332,-1.8709244999866996,5
8.963468372409373,-3.1243991201997363,-46.838457795299604,45.399167163696184,-16.7840085390175,6.159291783265821,6.224938135145467,153.336,-1.8669244999866805,5
6.868127624601274,4.384777046496584,-50.0937217162192,43.02093040033779,-8.334568152052537,1.8085327629475556,2.3459220338885594,153.34,-1.8629244999866899,5
5.528802641613154,8.063711070010436,-51.397158826707184,42.02510444916533,-4.09991325365924,-0.46786248917690687,0.34731640875443154,153.344,-1.8589244999866992,5
6.081791538711799,4.337708937334987,-50.09289913540916,43.72716266625349,-7.786524162026313,1.1222733434128065,2.610486811722409,153.348,-1.85492449998668,5
7.880401469621474,-3.470201519965405,-48.041540759158785,47.04865821955022,-15.951758885578377,4.825530756011289,7.7089107195195945,153.352,-1.8509244999866894,5
9.236237596852485,-8.418749536948274,-47.78079215054801,49.446320425903004,-21.29781340076957,7.0936995715008875,11.721097494009507,153.356,-1.8469244999866987,5
9.170574145752573,-6.629623801834083,-50.04804633022614,49.168186538578986,-19.52138387509868,6.013116560093346,11.847176762734044,153.36,-1.8429244999866796,5
8.408523556254872,-0.9157680204055765,-53.0604468827176,46.7619523954299,-13.201357646754975,3.0942410025742744,8.912855595619114,153.364,-1.838924499986689,5
8.620793816335338,2.0331445209709162,-54.1906850328954,44.49796273969402,-9.16387233029573,1.7479047325206636,6.454751553670199,153.368,-1.8349244999866983,5
10.690881395338149,-1.993283138949726,-52.3491194226652,44.32601609293317,-12.052934819725554,4.011486216323396,7.366953676745765,153.372,-1.8309244999866792,5
13.764137481765845,-11.019778204209056,-48.78890056960354,46.28337934486867,-20.29766227766641,8.716114699042597,11.342709525801911,153.376,-1.8269244999866885,5
16.030945220888132,-19.16870093303362,-45.71272719229934,48.722915565060404,-28.055554158754134,12.753419635101617,15.429701863036936,153.38,-1.8229244999866978,5
16.438828887578193,-22.309886745999197,-44.23203769225301,49.95770145835516,-30.81988329144073,14.023750485363648,16.941526898395935,153.384,-1.8189244999867071,5
15.611329402077656,-21.393645794724076,-43.718717639389496,49.67353040791092,-29.09698117945798,13.122014749549562,15.80247005403344,153.388,-1.814924499986688,5
15.091423256205898,-20.506914995421827,-42.995122277817934,48.873475239089295,-26.922707241570247,12.273168875920447,14.18667714359436,153.392,-1.8109244999866974,5
15.735775970594496,-22.158671038608183,-41.875159131230795,48.64420230994058,-27.293232698163255,12.854184266543541,14.092900320923615,153.396,-1.8069244999867067,5
16.90709401769166,-24.855950006949172,-41.32240774032135,49.10238611597513,-29.377221398157914,14.123564276516541,15.422534735245122,153.4,-1.8029244999866876,5
17.236327333561807,-25.261552353835643,-42.11944663010778,49.50895295418789,-30.068262035432255,14.322492778373235,16.38148795325274,153.404,-1.798924499986697,5
16.100669329201693,-22.277542176010236,-43.64269119134374,49.24978479275072,-27.757103396611395,12.770041660841526,15.556840981171451,153.408,-1.7949244999867062,5
14.271869298691708,-18.508040794228155,-44.255141363919094,48.54966252304618,-24.10565576810393,10.63228297257819,13.415023131935094,153.412,-1.7909244999866871,5
13.105098446004433,-17.5485792298185,-43.03840434480549,48.19538028061328,-22.06461468592574,9.596393385295636,11.754726148636388,153.416,-1.7869244999866964,5
13.163307438240297,-20.09221909187825,-41.01219253799311,48.65243205291368,-22.528007659486946,9.978875049994407,11.837804748209937,153.42,-1.7829244999867058,5
13.71948857187472,-23.101700194756088,-40.37143518092811,49.56753937175669,-23.39595898117369,10.382187482271503,13.199878930954997,153.424,-1.7789244999866867,5
13.625577328887386,-23.025143358753045,-42.29525665890315,50.174357757221244,-22.09248738134585,9.314546672654082,14.298405640239347,153.428,-1.774924499986696,5
12.6157506174933,-19.748626088671863,-45.47027367291837,50.13812372748556,-18.802975328738896,7.055551503859032,14.21244924149126,153.432,-1.7709244999867053,5
11.690778210254257,-17.159393924312493,-46.9261469045246,49.93471045140008,-16.889647542827156,5.7452135690991994,13.60448614091074,153.436,-1.7669244999866862,5
12.193138291078203,-19.620829162451074,-44.56672395699813,50.37295496520114,-19.881763956826575,7.491426156687801,14.011797663308661,153.44,-1.7629244999866955,5
14.497169430883515,-27.754356968180307,-39.08116029356063,51.74898631245667,-27.97002225980875,12.318279434330456,16.24110434387907,153.444,-1.7589244999867049,5
17.580432757323333,-37.566336786954594,-33.44059715755584,53.46350350783107,-37.4326950485188,17.94565971765362,19.450033010221237,153.448,-1.7549244999866858,5
19.841884256767738,-43.66835773811748,-30.434861619239193,54.45051429539259,-43.51714719906584,21.59451140016112,21.73345660410107,153.452,-1.750924499986695,5
20.359132858676816,-43.53311191051719,-30.49643228682579,54.0046919729987,-44.056388166227116,22.115883562528925,21.60622396936568,153.456,-1.7469244999867044,5
19.470661632630577,-39.061971073991806,-31.70053372878258,52.29588538441156,-40.67497126993508,20.584048271430053,19.086880784237277,153.46,-1.7429244999866853,5
18.307607135254035,-34.51853239816086,-31.749479017654043,50.21883376815939,-36.9391298884505,19.064859717572023,15.615840683279941,153.464,-1.7389244999866946,5
17.848673731282233,-33.11119486046307,-29.993139990910095,48.80072749952256,-35.51002030713286,18.89486646209529,13.070087465605928,153.468,-1.734924499986704,5
18.335106467421895,-35.180746637704814,-27.71406245193522,48.64221247528354,-36.74005147446235,19.96852757606011,12.689014045336826,153.472,-1.7309244999866849,5
19.37238466996965,-38.92746842261458,-26.678545851925,49.69225455651904,-39.319717374972505,21.330562086893348,14.530530336130047,153.476,-1.7269244999866942,5
20.408171186126488,-42.291865120628884,-27.51634806020312,51.356512706172104,-41.72749876042765,22.185764400833794,17.58526364812726,153.48,-1.7229244999867035,5
21.10952110563638,-44.15202868779558,-29.414225193548315,52.80193481360843,-43.076296164018466,22.363452937712747,20.367641188404797,153.484,-1.7189244999866844,5
21.44775143259692,-44.30641256570654,-31.164834303203357,53.337648461658674,-43.111394797232514,22.092876877323885,21.70436489456294,153.488,-1.7149244999866937,5
21.595602728485094,-42.996386914577144,-32.335304128689096,52.7521954029129,-41.993640816826016,21.61834182121168,21.359191907482575,153.492,-1.710924499986703,5
21.77146486290404,-40.72700253808995,-33.39785967494376,51.43364868710317,-40.26506813732957,21.085608788193557,20.099208012162503,153.496,-1.706924499986684,5
22.065053926575477,-38.30843281903493,-34.84901163220958,50.141412733270094,-38.73214300484798,20.619010792320065,19.064110003926846,153.5,-1.7029244999866933,5
22.29114342886143,-36.6191842861772,-36.35800377920893,49.522593060900796,-37.97554196601176,20.299598783722086,18.83939475791356,153.504,-1.6989244999867026,5
22.016081717765992,-36.04254694264215,-36.87276305931313,49.70468381756633,-37.819407719960246,20.02408887254794,18.98986331403527,153.508,-1.6949244999866835,5
20.84698395359656,-36.114964371723126,-35.60332776501193,50.278266298815105,-37.40545964123668,19.496345519424146,18.502156006135916,153.512,-1.6909244999866928,5
18.806860738031233,-35.81610274815049,-32.94330370563646,50.66671265991,-35.94112929829203,18.45993925367007,16.76702310046768,153.516,-1.6869244999867021,5
16.429658844048234,-34.263576561914356,-30.455171747167714,50.55235136861041,-33.37134901994259,16.92354420287188,14.18454291349414,153.52,-1.682924499986683,5
14.403558068460082,-31.203517307586694,-29.87726529602428,50.01738377851759,-30.245602971934343,15.088797451566585,11.816646277001063,153.524,-1.6789244999866924,5
13.051209862801903,-27.030979667141704,-31.911677340752984,49.362711975781714,-27.003230613260275,13.077456727959254,10.454509054612108,153.528,-1.6749244999867017,5
12.16195833888763,-22.599938155750156,-35.68674453821409,48.853315161966655,-23.63644107968123,10.868203566568114,10.039646706223087,153.532,-1.6709244999866826,5
11.360230662452265,-19.06734842388458,-39.25983238863767,48.612823799977214,-20.207176798753068,8.608456937747468,9.95284621109839,153.536,-1.666924499986692,5
10.603740697446115,-17.56297311687011,-40.81238072590724,48.6367373184256,-17.477968883806152,6.890719287265738,9.722125423446062,153.54,-1.6629244999867012,5
10.21885491624901,-18.411822850849298,-39.76666349443981,48.7610928169079,-16.520290769440386,6.436795468885165,9.282033912687444,153.544,-1.6589244999866821,5
10.3821097661297,-20.33455455703555,-37.11604940133318,48.5871165745066,-17.329012827547515,7.272489437188791,8.537901008091188,153.548,-1.6549244999866914,5
10.64778365722487,-20.706327569121065,-34.73598968489146,47.58716451005701,-18.002463460209846,8.268523019870912,6.941309527069586,153.552,-1.6509244999867008,5
10.195701631553353,-17.4062108272403,-34.09236669592194,45.53114009427104,-15.971345472794212,7.845415004645629,3.897666265486457,153.556,-1.6469244999866817,5
8.727305401023951,-11.10839424450655,-35.226122470623764,42.96114549251165,-10.683826381461085,5.500181089380222,-0.170288886324408,153.56,-1.642924499986691,5
7.104280659899953,-5.731968196899231,-36.8012911712754,41.16108807536278,-5.106702337905921,2.6992740015887096,-3.3246810307708796,153.564,-1.6389244999867003,5
6.868556710729458,-5.832567070987781,-37.27453665737361,41.36669401184272,-3.8855148819512997,1.9371376397795412,-3.1797697520390167,153.568,-1.6349244999866812,5
8.833928619827354,-12.545896270320817,-36.31865491840203,43.70193389156279,-9.118333350794295,4.445723919004595,1.0012981091224067,153.572,-1.6309244999866905,5
12.015136021029347,-21.665973185860253,-35.28228791085744,46.793023698473284,-17.54148843077509,8.606469935135458,7.075119872854723,153.576,-1.6269244999866999,5
14.08816364437641,-26.210057444698425,-36.145809122708,48.60235620214339,-22.324972125562862,10.835795407580505,11.154523438868994,153.58,-1.6229244999866808,5
13.239305131128093,-21.954537527941117,-39.719284492487446,47.966190692297346,-18.626008691000578,8.546154569076892,10.548180318926827,153.584,-1.61892449998669,5
9.856568899757802,-11.349647315149193,-44.62562270173835,45.57109962782382,-8.196592855415162,2.6676438004002443,6.076550544320884,153.588,-1.6149244999866994,5
6.457462742327132,-2.1056545720192585,-48.09362054193854,43.46127460138579,1.3804844885653518,-2.7011555752230674,1.6012088569026182,153.592,-1.6109244999866803,5
5.73590418175809,-1.2221621118090336,-48.05966796564526,43.416266321896366,2.6536992311612297,-3.493222263289331,0.969182605927945,153.596,-1.6069244999866896,5
8.336674515740985,-9.375846599209021,-44.85643686822589,45.558772989522446,-5.527421484042884,0.941043125525551,4.923214320688843,153.6,-1.602924499986699,5
12.296367853912402,-20.46430434635713,-41.01672744739627,48.36598384254672,-17.044596239378873,7.23917007244675,10.624106264226423,153.604,-1.5989244999866798,5
14.651205943224937,-26.63916737750596,-39.31446204642767,50.00404714552391,-23.5849574491152,10.769972307987816,14.113361476312178,153.608,-1.5949244999866892,5
13.799103912899387,-24.376817861461056,-40.70050763959121,49.74848898188627,-21.21874785786765,9.29381003404522,13.454670430089054,153.612,-1.5909244999866985,5
10.5797367486016,-16.432868627111322,-43.85466139992115,48.27298033163472,-12.778476648410548,4.375585325898709,9.837704269308018,153.616,-1.5869244999866794,5
7.260498780665694,-8.480050645763322,-46.59340223398121,46.72484237914141,-4.407162013682471,-0.46333624953698144,5.958609983156895,153.62,-1.5829244999866887,5
5.513251154120734,-4.028127543820376,-47.72569472654597,45.62589394467503,0.01656921544057924,-2.8973267130006946,3.4954346691307223,153.624,-1.578924499986698,5
5.261591114014382,-2.3642095590165746,-47.67248434377249,44.66598690094583,1.3248648970417698,-3.3087614963313032,2.0930124871184033,153.628,-1.5749244999867074,5
5.2920041906118485,-0.8735184915484266,-47.4751038846315,43.43680620768725,2.630469519545419,-3.5404730395230066,0.5298154978584463,153.632,-1.5709244999866883,5
4.786786526431154,1.2752763331610724,-47.39955334701547,42.17172887935755,5.1517466494011135,-4.505841676561897,-1.4801433647735027,153.636,-1.5669244999866976,5
4.15051483809003,2.134939621887722,-46.64463330995174,41.617436781823635,6.833918873542699,-5.223596541338579,-2.8685802640537243,153.64,-1.562924499986707,5
4.366577217456813,-0.4194754409331145,-44.423381638412934,42.16221890500015,5.04273834747513,-4.1718883605600015,-2.5567890300260223,153.644,-1.5589244999866878,5
5.691107925619767,-5.541282188600942,-41.195616084490055,43.20378305060635,0.18772413507194022,-1.3607954850819322,-0.9849213531251096,153.648,-1.5549244999866971,5
7.159541852920639,-9.401555904248251,-38.623208429529434,43.53337721533831,-3.8629911640236836,1.226360722431056,-0.03152429288863255,153.652,-1.5509244999867065,5
7.4903901727682705,-8.677146703261014,-38.131922633860285,42.44519505643125,-3.305907513157924,1.4343660313709883,-1.254974410291279,153.656,-1.5469244999866874,5
6.461717306210376,-4.065587518898027,-39.46765420652163,40.47052372141151,1.6530261275536227,-0.819862504348449,-4.2321629254073905,153.66,-1.5429244999866967,5
5.278730169209461,-0.0523797377476009,-40.768989643530354,38.955988108831804,6.6004868483726975,-3.2380146191122465,-6.7758211260237315,153.664,-1.538924499986706,5
5.4483206007629,-0.8347993806619064,-40.23530366333361,38.859145474184864,6.932302379146179,-3.2429158236261384,-6.926749586472266,153.668,-1.534924499986687,5
7.236488990598231,-6.301660018781979,-37.849431556173904,39.94644166233077,2.214198936359152,-0.4852922190003461,-4.760745795331915,153.672,-1.5309244999866962,5
9.30494990013755,-12.160178956288885,-35.45410722936583,41.19664312104965,-3.514297880291439,2.783526232278975,-2.156535187520007,153.676,-1.5269244999867055,5
10.011829840104104,-14.311597693019193,-35.01345889049743,41.99638891917854,-5.954543450195436,3.9708468301000037,-0.6994655556705953,153.68,-1.5229244999866864,5
9.171423395017706,-13.26615921653846,-36.6651013222856,42.88734783169717,-5.181831256066508,2.8870964378629145,0.16722413031280559,153.684,-1.5189244999866958,5
8.489424594666652,-14.085638501561597,-38.4451293897777,45.04026422039613,-5.976800480897269,2.2138821971219005,2.7639973600518855,153.688,-1.514924499986705,5
10.074083269759189,-21.531177971677614,-38.027687386154035,48.90423169095376,-13.201077013300726,5.040510508408572,8.741116902010875,153.692,-1.510924499986686,5
14.293992139844114,-34.82976881359387,-34.904125080100435,53.3567123623631,-26.44895954044331,11.668841477267161,16.86330745466326,153.696,-1.5069244999866953,5
19.007876701037066,-47.152582872954824,-30.9651645124558,56.28046028360051,-39.174273148237845,18.736577131553414,23.26710641745748,153.7,-1.5029244999867046,5
21.041658290988668,-50.7238797416805,-28.90356758718585,56.175186105310694,-43.511846777882695,21.677298531807104,24.245151178642587,153.704,-1.4989244999866855,5
18.748105839493352,-43.276478017357014,-29.867954326001595,53.42024347720016,-36.76321399946398,18.47882956973415,19.260467456394935,153.708,-1.4949244999866949,5
13.440944422757623,-30.18369394829797,-32.48717057210622,50.070516179784065,-23.874906063912487,11.456867417380076,11.577442564394936,153.712,-1.4909244999867042,5
8.43459631847776,-20.33967573150246,-34.11802622870517,48.337919716041775,-13.710228331782302,5.480908562066462,5.9145056954039585,153.716,-1.486924499986685,5
6.502580222856731,-19.31877270441448,-33.143506423387,49.02257122170641,-12.308054456183482,4.1936681531446345,5.051513986277218,153.72,-1.4829244999866944,5
7.911521476434627,-25.601409504973,-30.24008408494997,51.14126506710373,-18.791796280270354,7.446562817805248,8.133940508849745,153.724,-1.4789244999867037,5
10.611393066682703,-32.794846942686426,-27.542858098994436,52.937195267229896,-27.076883918662347,11.986408073571189,11.879592552859439,153.728,-1.4749244999866846,5
12.23993381903582,-35.51451304151932,-26.583056026306263,53.3251592208292,-31.458107818210436,14.539657089996037,13.450926756174976,153.732,-1.470924499986694,5
12.08313237734962,-33.64319634672531,-26.94616362892005,52.580246618071556,-31.066789457702768,14.468157955062567,12.5246124828644,153.736,-1.4669244999867033,5
11.3328518024183,-31.490489428030227,-26.852338259112297,51.82609111293794,-29.594999703847062,13.780352618612637,10.998531857020726,153.74,-1.4629244999866842,5
11.612700055328915,-33.06698708060135,-25.042154976692697,51.89656585650876,-31.04734868271636,14.768814597686958,10.878410230485802,153.744,-1.4589244999866935,5
13.26987284899964,-37.99421236850686,-22.159486343513084,52.577952944356674,-35.62905569046785,17.604429080019464,12.330499529112021,153.748,-1.4549244999867028,5
15.012964289003111,-41.70365109275353,-20.32706837260273,52.81491601263954,-39.42188390320427,20.077811050250343,13.546912016667534,153.752,-1.4509244999866837,5
15.146585566589758,-39.56837134552677,-21.29600113588846,51.62752454137042,-37.93014467195507,19.619374123614122,12.401032921795998,153.756,-1.446924499986693,5
13.196667725526758,-31.158174230600647,-24.847803241213896,48.94557119972947,-30.20121572400363,15.6925250253931,8.372429245168842,153.76,-1.4429244999867024,5
10.439951801355843,-20.887821924754892,-28.87204845955192,45.706688915557926,-19.922144786082214,10.425397551154576,3.1099769023206854,153.764,-1.4389244999866833,5
8.911180168562675,-14.648929668986566,-31.01661203840468,43.202450486925514,-12.699694375398812,7.002528102473499,-0.7509226751716312,153.768,-1.4349244999866926,5
9.823731721181009,-15.487196718156456,-30.431814576852343,42.24676085641954,-12.015482563411723,7.299991787005103,-1.4359905061851332,153.772,-1.430924499986702,5
12.777156507004111,-21.977854208726974,-28.132913297410017,42.8246572190304,-17.261187908136957,10.780482365984158,0.989659322255289,153.776,-1.4269244999866828,5
16.327792005170995,-30.337144125978167,-25.816167283184477,44.42469519747318,-25.19321305158395,15.411121710569535,5.182915547532891,153.78,-1.4229244999866921,5
19.275309083507196,-37.99372260129032,-24.330612361022325,46.66398896931825,-33.11130604259534,19.564764875873497,9.931578076209046,153.784,-1.4189244999867014,5
21.484253670303396,-45.30301286293945,-23.192097453627024,49.587438989044536,-40.77573327640136,23.1426076761299,15.056543257489986,153.788,-1.4149244999866823,5
23.617034236206585,-54.09351823249586,-21.43883208464477,53.3586185131851,-49.53463499685943,27.056737153537455,21.034595411070917,153.792,-1.4109244999866917,5
26.194493633931742,-64.77926376250801,-18.85521276201799,57.66522846921924,-59.83851364855202,31.78873316774572,27.824534902181323,153.796,-1.406924499986701,5
28.942404561921755,-75.01361975607796,-16.327996224286604,61.484344283541525,-69.74687495556228,36.514701585320104,34.14704050514343,153.8,-1.402924499986682,5
30.995509676720175,-81.24509244159465,-15.025641488773312,63.565603425472766,-75.95579716473956,39.62315007294821,38.04226791996635,153.804,-1.3989244999866912,5
31.67148427326013,-81.70090112257324,-15.255433371852186,63.31994552299074,-76.41972514082289,40.07791913062568,38.30671070837175,153.808,-1.3949244999867005,5
31.035225245650324,-77.97366236483987,-16.13110207780172,61.358684585306236,-72.14118117319015,38.31708240226244,35.534953382612706,153.812,-1.3909244999866814,5
29.760810737203798,-73.73421327239181,-16.36170790508591,59.15687013950035,-66.49866984782152,35.88425623071374,31.79265391788133,153.816,-1.3869244999866908,5
28.50872040549274,-71.77857882571736,-15.398367754822608,58.051459520227716,-62.73171956811801,34.191476045534515,29.157010177403027,153.82,-1.3829244999867,5
27.45687016639314,-72.07959889560107,-13.883465138040245,58.372084057789195,-61.77372254473177,33.54834322908611,28.359489125104623,153.824,-1.378924499986681,5
26.392407289858525,-72.45229023028594,-13.054178652631405,59.393660868590814,-62.1491267862959,33.23573390130032,28.63379360946355,153.828,-1.3749244999866903,5
25.181213589497425,-70.98233743594275,-13.711163619006049,60.08618724966378,-61.73223781963266,32.39861653624234,28.759721499177914,153.832,-1.3709244999866996,5
24.086852996655317,-67.87256497063214,-15.660926337748284,59.97131490621034,-59.65106353774137,30.867603998855166,28.25878294440098,153.836,-1.3669244999866805,5
23.613945415610452,-65.13173954156362,-17.989780115017144,59.375343264647256,-56.787789850316216,29.238392435072182,27.68162839156709,153.84,-1.3629244999866899,5
24.04768724420584,-64.64570839378815,-19.765952785567563,58.97038537302495,-54.77210069922125,28.29675378817493,27.868935473171273,153.844,-1.3589244999866992,5
25.144405837637755,-66.54517050633473,-20.53209941208097,59.121872020370404,-54.59930389442465,28.39565829827107,29.014637656561124,153.848,-1.35492449998668,5
26.2540787959942,-69.24391914862599,-20.342565377085794,59.63998427786943,-56.00726514120671,29.264818391026235,30.434868202028632,153.852,-1.3509244999866894,5
26.74532435080985,-70.828714593515,-19.57853020865916,60.06365970313858,-57.822501503095474,30.244831355745465,31.175930895575746,153.856,-1.3469244999866987,5
26.36830835255007,-70.383035869881,-18.823291639902646,60.10604116811598,-58.71593515518106,30.641063659115012,30.806849485183637,153.86,-1.3429244999866796,5
25.313055874028667,-68.23893998450428,-18.76281421655795,59.83572934667242,-57.82048515002514,29.992529836072563,29.680924294313712,153.864,-1.338924499986689,5
24.015363680192973,-65.37596456563102,-19.89206778390144,59.52652832615151,-55.10486211159679,28.270578335430894,28.560424119353865,153.868,-1.3349244999866983,5
22.923144335539583,-62.84112784378384,-22.05294887519416,59.43617888315306,-51.563955152226434,26.02285512250032,28.07585353001149,153.872,-1.3309244999866792,5
22.35773682532864,-61.607650286872364,-24.222701269197625,59.73575076089547,-49.04052882120114,24.29725669318143,28.4801360978656,153.876,-1.3269244999866885,5
22.44745122864327,-62.487645730390184,-24.967702226434287,60.52917691369093,-49.38912537591381,24.164427497995224,29.703417692408852,153.88,-1.3229244999866978,5
23.075100026729476,-65.63835122648055,-23.426560262669415,61.77251419977208,-53.183371898084594,25.98698401295956,31.41368514777344,153.884,-1.3189244999867071,5
23.876104386951383,-69.95186892147589,-20.081811985056863,63.1003243129222,-58.886352786048505,28.974697991516432,32.968907001191255,153.888,-1.314924499986688,5
24.381012969370534,-73.20787726018354,-16.585693852762002,63.828461423007276,-63.449426332070814,31.5295068717592,33.50401618087937,153.892,-1.3109244999866974,5
24.293713092619416,-73.38889229494404,-14.64215620484569,63.33798645605631,-64.28556279486969,32.29529452336513,32.38961722261857,153.896,-1.3069244999867067,5
23.720913873459317,-70.31509521946049,-14.793247498670993,61.631283281066835,-61.23653506950165,31.155402914047027,29.83727771905995,153.9,-1.3029244999866876,5
23.129935209165968,-66.07165073741659,-16.11332375803547,59.525756258002716,-56.83594396339332,29.330658059913855,27.034568931762834,153.904,-1.298924499986697,5
23.005324796625604,-63.51754964380077,-17.080220294635073,58.152321216965774,-54.41006173442367,28.41120434035454,25.438981318913594,153.908,-1.2949244999867062,5
23.450184625895055,-63.91668927139603,-16.892141085142338,58.06585873517658,-55.42071570335164,29.065197555357614,25.648305143460746,153.912,-1.2909244999866871,5
24.069216846611543,-65.75198560474763,-16.118819993552826,58.74097670514757,-58.25764696811059,30.491667063221755,26.826591951430192,153.916,-1.2869244999866964,5
24.259819937590862,-65.92973434322988,-16.154032990602193,58.98434024328871,-59.57611900597424,31.09160064833132,27.32412551059542,153.92,-1.2829244999867058,5
23.68997130712083,-62.47468263624799,-17.963642123086117,57.982781462844656,-57.11840977156935,29.806596890488688,26.07738487044926,153.924,-1.2789244999866867,5
22.56677354711158,-56.376738590890774,-21.206907050613662,56.07297812503338,-51.64525803398796,27.006236572199008,23.58291543114841,153.928,-1.274924499986696,5
21.46709220436883,-50.898025282975624,-24.463143272690807,54.509474805476685,-46.33875961060185,24.192544806742482,21.530816349680272,153.932,-1.2709244999867053,5
20.875671371109075,-48.88741706534471,-26.344711872405764,54.39885100974539,-44.20784818222832,22.79596343644098,21.36949130268334,153.936,-1.2669244999866862,5
20.827908193258136,-50.45251117758859,-26.54438942616795,55.73947449855709,-45.72492916329837,23.089952545498104,23.0644945297416,153.94,-1.2629244999866955,5
20.956674373197355,-53.02675536349836,-25.957562636496117,57.4215493034517,-48.66039009571127,24.110965556354493,25.155518862702227,153.944,-1.2589244999867049,5
20.87898985659373,-53.70803219750652,-25.828107181546823,58.17000756751616,-50.12832334529286,24.58275993524616,26.032705364990168,153.948,-1.2549244999866858,5
20.555425400047255,-51.721340431308256,-26.685587110643247,57.57099970041005,-48.971147260716194,23.996032885341904,25.255616816868486,153.952,-1.250924499986695,5
20.28927747165133,-48.82559811823363,-27.97920488197686,56.28993321676804,-46.44059920881417,22.91539737426207,23.75079414634324,153.956,-1.2469244999867044,5
20.37463667701269,-47.43069704590437,-28.674801111927216,55.36294609403465,-44.74705589657614,22.313100590835347,22.80187069252505,153.96,-1.2429244999866853,5
20.737094039923083,-48.27323090253231,-28.23435984489011,55.26999846419681,-44.93415274533395,22.594124722186336,22.840526266450137,153.964,-1.2389244999866946,5
20.924194511286657,-49.801465605303896,-27.083287945107838,55.6188999132211,-46.014191035560245,23.21384935563628,23.142000805827955,153.968,-1.234924499986704,5
20.47813219514638,-49.741201250668325,-26.15757907065364,55.63680220836869,-46.03968940981039,23.21421256595493,22.609322761662366,153.972,-1.2309244999866849,5
19.363273412901357,-47.295949196412614,-25.96960901369478,54.93013415188619,-44.02416495027764,22.16364829645922,20.832667299138258,153.976,-1.2269244999866942,5
18.06458725964456,-43.95064720472551,-26.072197853243804,53.813134131135655,-40.9582509231546,20.64247949775348,18.460895092590224,153.98,-1.2229244999867035,5
17.270029631656662,-42.24077502828162,-25.43396657918945,52.98762748499024,-39.09205401266403,19.851307775268012,16.657830728220173,153.984,-1.2189244999866844,5
17.413411622530166,-43.70020515127709,-23.398664696549226,52.95094250043291,-40.205356950866864,20.70132719843509,16.238545477295002,153.988,-1.2149244999866937,5
18.44321943882626,-47.783447367029964,-20.360331588267798,53.66312969182618,-44.340348529089525,23.154376366947655,17.223401986787177,153.992,-1.210924499986703,5
19.937307521537274,-52.48015618432849,-17.543319744853566,54.66695509234585,-49.88010572571292,26.290259024974933,19.009060016036916,153.996,-1.206924499986684,5
21.373367332802097,-55.79624750614157,-16.087105935886324,55.43704098444562,-54.64484037365511,28.926636046203278,20.791149452231984,154.0,-1.2029244999866933,5
22.300758445069633,-56.74770594145504,-16.243141986113,55.63402391653807,-57.00751825984696,30.22981311733765,21.833770708469622,154.004,-1.1989244999867026,5
22.367051984789743,-55.31406766931376,-17.34384344377993,55.155870169393566,-56.35799068233345,29.929346172900505,21.56363346834333,154.008,-1.1949244999866835,5
21.36039396356901,-51.908833444381735,-18.474704994161627,54.10072322563256,-53.00886837455205,28.205477831624457,19.725811792269393,154.012,-1.1909244999866928,5
19.37919814635994,-47.17409886661388,-19.179164439707062,52.75183026837593,-47.98690697614529,25.550359101091107,16.65878276663924,154.016,-1.1869244999867021,5
16.98982492726725,-42.19271892715624,-19.598437543083904,51.54480088403543,-42.864613158718235,22.72635728052376,13.39478653713193,154.02,-1.182924499986683,5
15.09875267294803,-38.49035435486819,-20.061920160529848,50.92197482796707,-39.39233578253337,20.6525361193972,11.27134667761912,154.024,-1.1789244999866924,5
14.467034019941332,-37.35539584869391,-20.65625455284154,51.10537640371909,-38.776629686506624,20.04512403117696,11.170745633204692,154.028,-1.1749244999867017,5
15.175039719433679,-38.86686050797795,-21.225112583645796,51.96415198682726,-40.951218923790485,20.95478098046547,12.949219328687821,154.032,-1.1709244999866826,5
16.502916484863437,-41.581571188302874,-21.725220604603273,53.11261641811703,-44.47324888242748,22.606814488797866,15.557693283555286,154.036,-1.166924499986692,5
17.403814415738257,-43.38462946853059,-22.46731820602107,54.16781385525423,-47.306559392812524,23.803216751641642,17.78366204473006,154.04,-1.1629244999867012,5
17.23680557390941,-42.93583753872329,-23.909113692218313,54.94456307055322,-48.01003571824578,23.669534112924,19.004084191800757,154.044,-1.1589244999866821,5
16.17356730731567,-40.52924364357164,-26.169932511237004,55.44197110128301,-46.46723853427006,22.18643076410105,19.364445516379003,154.048,-1.1549244999866914,5
14.956492790439565,-37.661661466572546,-28.76514770553332,55.69511030065709,-43.67049196383186,20.09437414231343,19.351323902527636,154.052,-1.1509244999867008,5
14.235640088818043,-35.723113132863936,-30.874280595645345,55.685733371203455,-40.8466251660885,18.27648405125187,19.246161383324427,154.056,-1.1469244999866817,5
14.047962898393191,-34.9219924437139,-31.951074907132213,55.40191744781991,-38.65755604868359,17.13061536180383,18.950127691512787,154.06,-1.142924499986691,5
13.839875778108738,-34.2532986550286,-32.15502081636646,54.941889787790295,-36.9903576522162,16.39034595606994,18.226565601642303,154.064,-1.1389244999867003,5
12.959176791156752,-32.40262621496164,-32.23257861760434,54.504551347084956,-35.301205351143466,15.450711479272247,17.021970566195506,154.068,-1.1349244999866812,5
11.194989283807994,-28.818608041038242,-32.94069671582737,54.25672528405921,-33.14923086038576,13.893567444546777,15.56325360483741,154.072,-1.1309244999866905,5
8.983427796726556,-24.236811268631445,-34.462872483716104,54.23137059812082,-30.61729081216104,11.853130093974196,14.24904607568704,154.076,-1.1269244999866999,5
7.197739924082782,-20.428386902067118,-36.245031169985495,54.38358721453734,-28.481612295047892,10.039569146407576,13.534134082072812,154.08,-1.1229244999866808,5
6.698727424670309,-19.360018703849043,-37.3511486021921,54.73292073609221,-28.00833988925452,9.422251347562845,13.865607686970307,154.084,-1.11892449998669,5
7.879222785087696,-22.115697794687136,-37.089135902740296,55.38916241514837,-30.267960819673245,10.681661628731632,15.522747688133004,154.088,-1.1149244999866994,5
10.382971097390993,-28.032127765535975,-35.507565211624815,56.37685600064576,-35.16661131638328,13.654576793105985,18.29190040240135,154.092,-1.1109244999866803,5
13.14010869389734,-34.607990647283046,-33.452966602237666,57.43592975725332,-40.887947084853266,17.13163198832471,21.241233894898613,154.096,-1.1069244999866896,5
14.805175573460435,-38.57600469450393,-32.12621540805873,58.079454281039716,-44.52047250210606,19.32490532036984,23.013157429798746,154.1,-1.102924499986699,5
14.489321074265327,-37.82670664343539,-32.37099883654476,57.966924177806455,-43.87453185760417,18.927279533660315,22.68871255185223,154.104,-1.0989244999866798,5
12.388953209743566,-32.998955990128174,-34.128919247630904,57.29060741414235,-39.30958516205004,16.119480315209277,20.638419460713962,154.108,-1.0949244999866892,5
9.80692983377229,-27.375180583608202,-36.4534979526055,56.757762065587094,-33.94187665895659,12.676411950918503,18.529451344892415,154.112,-1.0909244999866985,5
8.384574169340661,-24.762205484116446,-38.13839059336117,57.06551170439933,-31.632586782118256,10.859761992255459,18.22333499360045,154.116,-1.0869244999866794,5
8.977621243921643,-26.696654528942137,-38.56136665183753,58.258462661446096,-34.045645046857594,11.773462070361008,20.294120251908534,154.12,-1.0829244999866887,5
11.005474378421203,-31.15025592180978,-38.126184113471155,59.55466626790485,-39.145000515855045,14.456592999560964,23.404706905248975,154.124,-1.078924499986698,5
12.843249068073971,-33.95520964833803,-37.93815534024161,59.88138027145722,-42.57865970406388,16.541435753132276,25.205959599980087,154.128,-1.0749244999867074,5
13.02539626398155,-32.00680388572456,-38.93290237925847,58.74141847125049,-41.04299691967985,16.06019619079496,24.155692258635916,154.132,-1.0709244999866883,5
11.342475361097112,-25.740198718688717,-41.12479692316705,56.69053653923106,-34.94818573699216,12.985513171444538,20.794656307075243,154.136,-1.0669244999866976,5
8.9644426327528,-18.863821658857646,-43.558525642625824,54.984642116179245,-28.169067927784166,9.255559607106205,17.38677087322943,154.14,-1.062924499986707,5
7.509827655568995,-15.545312546741396,-44.989550564751454,54.640250683487174,-25.060795626634402,7.272253089476691,16.17332730959443,154.144,-1.0589244999866878,5
7.832147949249538,-17.310470995929247,-44.75815270314287,55.653347911160154,-27.17593700980542,8.105494055014239,17.65357079345365,154.148,-1.0549244999866971,5
9.47994278789772,-22.069755178893185,-43.21605262229349,57.00137311710917,-32.28030163378967,10.814284623242207,20.270508906727297,154.152,-1.0509244999867065,5
11.174922479169277,-25.867518449640443,-41.453729917950234,57.414946949864074,-36.26423290225567,13.303907887495754,21.69170395331724,154.156,-1.0469244999866874,5
11.815281037513772,-25.790589396153415,-40.58989928398467,56.29863704314035,-36.21131581134364,13.897990045734016,20.57989636509361,154.16,-1.0429244999866967,5
11.17060791784247,-21.76992673250864,-41.121817275336745,54.102563387750926,-32.19487759951004,12.369246228590091,17.444204073171967,154.164,-1.038924499986706,5
9.812396333318985,-16.1500665092276,-42.70572718971469,51.922607605287894,-26.6943945207123,9.787434506940858,14.027749774106884,154.168,-1.034924499986687,5
8.500369510192412,-11.706872164600549,-44.43813385439949,50.70175414337266,-22.483190466127787,7.534321331556439,11.891751500006338,154.172,-1.0309244999866962,5
7.613223192371788,-9.756490031110392,-45.45346605064747,50.6398339272644,-20.764153396540934,6.346590884718078,11.374461473944566,154.176,-1.0269244999867055,5
7.037332400133887,-9.595045995916575,-45.50266786639989,51.17436016418947,-20.744890259537556,6.010858308526378,11.620053249004316,154.18,-1.0229244999866864,5
6.47634310866801,-9.389962095107446,-45.135567046413094,51.44956536002559,-20.603403025985955,5.751354085286023,11.4516696135269,154.184,-1.0189244999866958,5
5.844814827131647,-7.759790792138979,-45.2621819954519,50.90849172186327,-18.989359824995407,4.943086717771799,10.314939345819601,154.188,-1.014924499986705,5
5.439184088424148,-5.03458561355806,-46.27945558919425,49.658808310827716,-16.15486081124899,3.7079160379440714,8.662993576805397,154.192,-1.010924499986686,5
5.798077535933962,-3.4211326875492376,-47.41778519704897,48.45002784590788,-14.127141854447105,3.0490197154331735,7.668934641770322,154.196,-1.0069244999866953,5
7.353661197016628,-5.8028746492885075,-47.02100993291364,48.28522378723163,-15.702549608581235,4.347299337047724,8.540249869487438,154.2,-1.0029244999867046,5
10.063179646974332,-13.654464631797955,-43.83461172267136,49.82938091039158,-22.55929058255094,8.359610122433226,11.796196257221132,154.204,-0.9989244999866855,5
13.236576256588632,-25.343607692919786,-38.40372951052444,52.90103565804004,-33.51223206128354,14.303502972383901,16.818454377715206,154.208,-0.9949244999866949,5
15.736726206124873,-36.28540207009535,-33.273796538499724,56.39002025558697,-44.33373879527857,19.828657808279438,21.937533133882372,154.212,-0.9909244999867042,5
16.550355440569355,-41.414768585853245,-31.458251478329625,58.78586470322462,-49.869460577343524,22.236444577051117,25.16981592068132,154.216,-0.9869244999866851,5
15.435249874951046,-38.609542586344325,-34.14433935605023,59.09816368090523,-47.43473247059931,20.31494642301252,25.340254434125086,154.22,-0.9829244999866944,5
13.170408288218573,-30.495591506817583,-39.52155825055614,57.55955991302715,-39.02079242271246,15.407645716064643,22.900328262775847,154.224,-0.9789244999867037,5
11.123206188364932,-22.88344340505348,-43.91618317212719,55.520034313646235,-30.264456301288597,10.678406481411226,19.742435895046903,154.228,-0.9749244999866846,5
10.359833015272061,-20.674107933297236,-44.50449340178981,54.49666192404121,-26.560071960189124,8.926006916892202,17.956171439070715,154.232,-0.970924499986694,5
10.950453040199903,-24.340249929170884,-41.4181871977796,55.05185473906295,-29.20858369395143,10.604431619377904,18.360281422261203,154.236,-0.9669244999867033,5
12.025114814441046,-29.85673754328754,-37.47066434712023,56.39877543684111,-34.72567419307647,13.663478316946424,19.965707515255684,154.24,-0.9629244999866842,5
12.530755987407337,-32.14738595153555,-35.766337923329516,57.08601934615524,-37.884990312175916,15.330225018430024,20.85171383504839,154.244,-0.9589244999866935,5
12.046646208418474,-29.127439672746952,-37.28281743329686,56.20882613621865,-35.90522228137878,14.299245385014645,19.760761657770843,154.248,-0.9549244999867028,5
10.994999025976066,-22.99629436080177,-40.4401260292195,54.133996966870484,-30.298516756543886,11.515427533651636,17.09051362006699,154.252,-0.9509244999866837,5
10.161124141806948,-17.989412326177508,-42.78500572870185,52.15382535607469,-25.114517281172283,9.078094852725819,14.4958909854442,154.256,-0.946924499986693,5
10.049517899147334,-16.91679866717887,-43.04601529070782,51.42647190871087,-23.517874953656488,8.466106971316258,13.53859213236872,154.26,-0.9429244999867024,5
10.656461987765564,-19.57085676686689,-41.71993636062824,52.14996589753972,-25.807023618820033,9.694959253855226,14.596429607154692,154.264,-0.9389244999866833,5
11.726616035231467,-23.929825252162075,-39.99297570548467,53.62389540677875,-30.1843802689329,11.882564190925896,16.874105593643552,154.268,-0.9349244999866926,5
13.05879050454509,-28.34273616931309,-38.4267913764638,54.99549963230915,-34.83692749835006,14.28319685891206,19.268968048360648,154.272,-0.9309244999867019,5
14.473485793866468,-32.32357948755358,-36.816271972055624,55.90857109624074,-38.987689286935854,16.607680994480102,21.137802861957756,154.276,-0.9269244999866828,5
15.56170593490128,-35.553360052956165,-35.11938656581871,56.49875596109438,-42.218571553665534,18.507092997656027,22.323763278788736,154.28,-0.9229244999866921,5
15.682989612206821,-36.851164744723576,-34.09971998679104,56.909681092140175,-43.50979061408961,19.170716547032416,22.697288094224824,154.284,-0.9189244999867014,5
14.42441478675699,-34.79925778828278,-34.70955400994338,56.961073357342364,-41.64735260358689,17.82924908813844,21.94142716957526,154.288,-0.9149244999866823,5
12.12889699584626,-29.534520150860736,-36.82107498928583,56.34127353687132,-36.76277573334453,14.750245164634418,19.89795517613911,154.292,-0.9109244999866917,5
9.85871447019297,-23.496111766941258,-38.86922234826692,55.055380015748895,-31.058226218099833,11.489846516100837,17.01961933126533,154.296,-0.906924499986701,5
8.643951787801878,-19.759634335189023,-39.126320471772615,53.557240899821984,-27.359082955043547,9.782930689499556,14.260914384881787,154.3,-0.9029244999866819,5
8.632167702098785,-19.24407456332989,-37.500847259912966,52.35332654511213,-26.547855264701294,9.957040228001166,12.350242612732092,154.304,-0.8989244999866912,5
8.973984818994099,-19.642025118234116,-35.94113632490252,51.48129075610414,-26.506474573472396,10.49451881179879,11.13984162971203,154.308,-0.8949244999867005,5
8.630228611637227,-17.480605664084333,-36.75914845095209,50.44941764438701,-23.986289190720935,9.391058596210165,9.755338453522974,154.312,-0.8909244999866814,5
7.370170350307775,-11.559123694280308,-40.32546588427625,48.758583688516765,-17.867409520917683,6.143464600048245,7.479780460601479,154.316,-0.8869244999866908,5
5.992781046537745,-4.410706136834844,-44.40753319994083,46.50328300927897,-10.630239184250959,2.425559480629758,4.52685498458018,154.32,-0.8829244999867001,5
5.540588220808849,-0.21905973557608927,-45.956484137678665,44.432354613174304,-6.419149688782692,0.6897881799424087,1.9319625481119032,154.324,-0.878924499986681,5
6.277711495208476,-1.1113632599882433,-43.76509477776822,43.37893888175111,-7.4133115328426324,1.9649864618366712,0.6681327318028486,154.328,-0.8749244999866903,5
7.449249541304987,-5.40253725631266,-39.505471090453995,43.59990021144485,-11.967306794732618,4.958947055638367,0.8672183331110865,154.332,-0.8709244999866996,5
8.055553566980832,-9.441583292576716,-36.175964178789236,44.64749074293608,-16.29743917612815,7.323499719591726,1.8884426179854692,154.336,-0.8669244999866805,5
7.8462393246227355,-11.124476400283223,-35.466480078762906,45.85235996614179,-18.009710772414927,7.82222658843375,3.079841372262801,154.34,-0.8629244999866899,5
7.5171870052942396,-11.532164046750355,-36.54043793059237,46.893758430223095,-17.990142039309656,7.279093643348961,4.372704937786096,154.344,-0.8589244999866992,5
7.913679195739429,-13.14787818470677,-37.27538717002551,47.88566890947347,-18.891287385943613,7.441677084367174,6.073527551095827,154.348,-0.8549244999866801,5
9.067874807500065,-16.639454969599313,-36.58863795816852,48.947827536632886,-21.897336980011435,8.986746740852649,8.122980822793684,154.352,-0.8509244999866894,5
10.075579917698406,-19.64361792737322,-35.49994458352925,49.78622443577985,-25.1442291847743,10.717769351886409,9.708217990312123,154.356,-0.8469244999866987,5
9.959577547864267,-18.90331927253199,-35.95266471045869,49.80176115011217,-25.435110629379327,10.7531463950028,9.776609519390796,154.36,-0.8429244999866796,5
8.650677434561384,-13.645166137043734,-38.681576222370815,48.68424622932343,-21.525638295319826,8.477400311782878,8.040056679066693,154.364,-0.8389244999866889,5
7.084607188523111,-6.768542985983864,-42.30711391537918,46.90572271710741,-15.658588773393028,5.272769723638189,5.471146045487385,154.368,-0.8349244999866983,5
6.303604194947004,-2.556774633913597,-44.53840113487558,45.55904209147433,-11.76355922390112,3.29231007746865,3.703778628800325,154.372,-0.8309244999866792,5
6.462722754693265,-3.0360980185154163,-44.262629159127144,45.581940988703714,-12.020748875011972,3.490931978613955,3.783880330643622,154.376,-0.8269244999866885,5
6.744886884217058,-6.403881833147278,-42.48776376833901,46.99994786541907,-15.054738780775823,4.838889831055488,5.362659801570504,154.38,-0.8229244999866978,5
6.275776126007156,-8.911889007873228,-41.305695937376655,48.849692438359256,-17.397215584733576,5.4395630285788314,7.04976893703823,154.384,-0.8189244999867071,5
5.1157471496611615,-8.304910159808975,-41.967292052425016,49.874800019386925,-16.71975784250703,4.402759182954631,7.598653702738331,154.388,-0.814924499986688,5
4.310043012748571,-5.581026632181251,-43.90896423030541,49.43417690611712,-13.761486128475655,2.639709405401775,6.867547666694866,154.392,-0.8109244999866974,5
4.903198407068933,-3.619609411861552,-45.51892756310895,47.9013741340957,-11.285114259393849,1.8668871827510911,5.752191510448669,154.396,-0.8069244999867067,5
6.857247081998707,-4.23901066801547,-45.73703162321947,46.283643808631446,-11.28254674854,2.8673413524579603,5.250356796686845,154.4,-0.8029244999866876,5
8.93631113630087,-6.568358215222044,-44.913512153425486,45.43436889366456,-13.190294804898523,4.7251489865583505,5.576336157022296,154.404,-0.7989244999866969,5
9.707244417905109,-8.13043143282136,-44.23734371622234,45.51663751473939,-14.698164176578121,5.727838798589175,6.114218594388165,154.408,-0.7949244999867062,5
8.741248794760573,-7.356266457799632,-44.47557995403409,46.089759373972136,-14.143224769703037,4.989426942992236,6.154636069811848,154.412,-0.7909244999866871,5
6.90999577818808,-5.002119123315637,-45.32100755974051,46.62712236456912,-12.0365106185362,3.196219296645309,5.626299862189863,154.416,-0.7869244999866964,5
5.527112284788034,-3.1798177823612153,-45.89855203204008,46.9392204586917,-10.276949723769691,1.7976657512530825,5.091321043438201,154.42,-0.7829244999867058,5
5.16267954507418,-3.0822425647995417,-45.7947069209015,47.139638681870125,-9.954117875733827,1.4968753635102472,5.031873770980327,154.424,-0.7789244999866867,5
5.232099936561761,-3.67414211809583,-45.53166907113708,47.267848883241776,-10.002603744231955,1.5403014564291386,5.168164657232202,154.428,-0.774924499986696,5
4.69451487167682,-2.5961404479669925,-46.0470081068634,47.01716153587358,-8.084727505896659,0.48429139082416384,4.531908262352519,154.432,-0.7709244999867053,5
3.145115900640092,1.5983992177438306,-47.733998430615614,45.90313128124538,-2.8861909331439497,-2.32408942546766,2.2976323895979553,154.436,-0.7669244999866862,5
1.252597948106247,7.945101422262522,-49.97144877151125,43.76163479456359,4.3486601617580645,-5.974535896871572,-1.3620096583075625,154.44,-0.7629244999866955,5
0.1648026525282731,13.611544846194121,-51.54672015118529,41.11110005255244,10.481978670649339,-8.6393385943662,-5.183367476372666,154.444,-0.7589244999867049,5
0.5007249577804244,15.904573544899982,-51.539466964604465,38.992135219872736,12.734340282235168,-9.000607914025208,-7.591699126158612,154.448,-0.7549244999866858,5
1.8983748388993802,13.96407326215521,-49.883417113031946,38.34996034090784,10.515452821641528,-7.144367584491849,-7.700076566080137,154.452,-0.7509244999866951,5
3.485362426732647,8.860004408318042,-47.20894995523165,39.437551330094536,5.3578580181153574,-4.202079409124059,-5.729746818904834,154.456,-0.7469244999867044,5
4.713382214624454,2.379186250741391,-44.24588997418072,41.706900420502734,-0.6743307499905569,-1.2476942730364133,-2.63155388866088,154.46,-0.7429244999866853,5
5.679327571524188,-4.121679947259079,-41.39268681793197,44.231537763821464,-6.3948088253915785,1.3971532466502186,0.6011570085867747,154.464,-0.7389244999866946,5
6.646615541943568,-9.784042646282703,-38.79286036154809,46.26356915497972,-11.443923688706874,3.8314482075840486,3.2791937920303504,154.468,-0.734924499986704,5
7.358818824633176,-13.555090167733564,-36.713530850536046,47.47966482165728,-15.172674955028798,5.729441336768464,4.873370990239501,154.472,-0.7309244999866849,5
6.988954183089586,-13.944742162050797,-35.717887759665075,47.83430215273035,-16.042798740363544,6.062739113495382,4.819433212764107,154.476,-0.7269244999866942,5
4.912272385350667,-9.961164847271286,-36.32898409372736,47.331441252767725,-12.591888900431417,3.890207138274569,2.748117065037112,154.48,-0.7229244999867035,5
1.581073512088921,-2.561840581276655,-38.40374908591936,46.04594246847311,-5.267421429629057,-0.446015427650286,-0.947989456086642,154.484,-0.7189244999866844,5
-1.4424183782568585,4.92542553464506,-40.80656028676184,44.36468606992338,2.7627731942318126,-4.954866546890932,-4.849039586890573,154.488,-0.7149244999866937,5
-2.4977515910758554,8.324887531692596,-41.83671758710809,43.07645270766218,7.06411427292461,-7.0593468379969275,-7.0716384960984815,154.492,-0.710924499986703,5
-1.0713023231669216,5.278903690025497,-40.27551574508478,43.0178109484616,4.868640195633016,-5.380823145334748,-6.4377136205336125,154.496,-0.7069244999866839,5
1.8270108455050282,-2.9859075433961904,-36.32723126024956,44.44506119041036,-2.8286805459020883,-0.7834708714141831,-3.3467818149533484,154.5,-0.7029244999866933,5
4.508290034006211,-12.360260079828834,-31.657815257100072,46.68440557443588,-11.856186752737752,4.2427753407830275,0.4387911404415544,154.504,-0.6989244999867026,5
5.926955315988297,-18.658015895899972,-28.345302209353843,48.47950915954939,-17.808251132025273,7.396030926844511,3.009073834896886,154.508,-0.6949244999866835,5
6.3284334860035445,-20.40399659578883,-27.434359243349338,48.86603622677824,-19.03941272521103,8.106907374016398,3.576391477551029,154.512,-0.6909244999866928,5
6.725192868725335,-19.458713049909978,-28.206664698492286,47.89231042214518,-17.381058223572083,7.61620646548656,2.812726215617285,154.516,-0.6869244999867021,5
7.784449906289898,-19.114937718338094,-28.79788689478211,46.578344493867526,-16.198605086773775,7.664146679924467,2.0844886198120878,154.52,-0.682924499986683,5
9.194328074223808,-21.354644255072984,-27.715295588640377,46.13113743969437,-17.587130874308116,9.003829749329709,2.3277754547735965,154.524,-0.6789244999866924,5
10.04293718685178,-25.51105853545638,-25.028169630880893,47.05410565462185,-21.023094291245354,10.970011493737735,3.4952681223712756,154.528,-0.6749244999867017,5
9.755561085957458,-29.21716084276501,-22.244902598300154,48.845864649793874,-24.307797862549887,12.299012862085089,4.869422705778634,154.532,-0.6709244999866826,5
8.647269185643458,-30.525799072174014,-21.013194201998125,50.451127655470586,-25.607545885399475,12.297424036683509,5.750718281774052,154.536,-0.6669244999866919,5
7.5878203433819955,-29.252024794770236,-21.805926730514777,51.01549549316046,-24.660954648111545,11.275217275825437,5.840373061028669,154.54,-0.6629244999867012,5
7.163361622946621,-26.567599099531513,-23.731503105300042,50.34565029017982,-22.317233328824162,9.97855767571996,5.128765944809327,154.544,-0.6589244999866821,5
7.182437250535111,-23.623807521348997,-25.52771149050564,48.8466181835088,-19.29371830944355,8.74471621170304,3.6714656755512567,154.548,-0.6549244999866914,5
6.998209315230911,-20.786443029129497,-26.678053296997803,47.17250192066516,-15.68591224794631,7.314227561219474,1.665469776958076,154.552,-0.6509244999867008,5
6.308910524873,-18.214096381485327,-27.525386028311917,45.9448497202144,-11.760052825157606,5.501998325721942,-0.2562233358544681,154.556,-0.6469244999866817,5
5.640887802156956,-16.93065586122127,-28.336001211594695,45.64384692513692,-8.995497251708368,3.985549087471624,-1.008129490241161,154.56,-0.642924499986691,5
6.0229499482936175,-18.88501847875338,-28.418791436660378,46.52300581580449,-9.870849233998394,4.2520020696010326,0.3767013157130242,154.564,-0.6389244999867003,5
8.111794854656116,-25.482965510417394,-26.42864321944212,48.44221329501621,-16.073079453610323,7.506736109881779,3.9239439239157536,154.568,-0.6349244999866812,5
11.528338356973638,-35.774361502852365,-21.77539567814501,50.76456406101677,-26.543508348251553,13.400231955222093,8.40013115603642,154.572,-0.6309244999866905,5
14.986881180167229,-46.160693963821,-15.792484588132169,52.56056906756168,-37.311083281185944,19.772605249297133,11.94420633611306,154.576,-0.6269244999866999,5
17.134623152535532,-52.34422041155439,-11.320877645515019,53.12136627377598,-43.71959915477577,23.85728357052646,13.271424215007228,154.58,-0.6229244999866808,5
17.453359156065392,-52.22667946410288,-10.762519498264997,52.42864238746507,-43.54642095313297,24.140048809719026,12.513569562251345,154.584,-0.6189244999866901,5
16.55731450016614,-47.452034494080095,-14.167712603619663,51.169808727094896,-38.56488777486128,21.433593085698508,11.023918559601496,154.588,-0.6149244999866994,5
15.715374195649433,-42.28723598915841,-19.055405159654363,50.247080807242824,-33.2630919270378,18.298178568216443,10.345099504741881,154.592,-0.6109244999866803,5
16.000123289335157,-40.70673713985526,-22.210393778036984,50.178672148267964,-31.729161561621456,17.255769429257953,11.211727612652632,154.596,-0.6069244999866896,5
17.67892097085498,-43.95757402095831,-21.977616406575223,50.87527916316554,-35.131163984996796,19.18168753585378,13.330466742656043,154.6,-0.602924499986699,5
20.202184021041813,-50.31275182643773,-19.18295125017637,51.901846919561784,-41.5495522362454,23.024598856164143,15.916625516091736,154.604,-0.5989244999866798,5
22.671279769354793,-56.78936069378196,-16.08832973705501,52.88451711726852,-47.862185344719876,26.85508232881341,18.328996560120114,154.608,-0.5949244999866892,5
24.369202241575497,-61.127462531591924,-14.497719285744004,53.65354329712703,-51.84009436279422,29.220440504642987,20.222090136784594,154.612,-0.5909244999866985,5
25.009631987052046,-62.54517502283798,-14.68659428468265,54.072209654824555,-52.87532392644204,29.752123304821495,21.273128287264562,154.616,-0.5869244999866794,5
24.67594307251273,-61.24462574840417,-15.832721217481536,53.87672713246141,-51.3367984125185,28.83264160049822,21.02883357293182,154.62,-0.5829244999866887,5
23.665931277167008,-57.75547700384421,-17.176313145356644,52.821889642341546,-47.76399128735488,26.97424449075415,19.23371602629303,154.624,-0.578924499986698,5
22.42230448142178,-52.92245553249544,-18.65133230805853,51.027562027028544,-42.83594768154219,24.601354243096434,16.35851477054939,154.628,-0.5749244999867074,5
21.503438818649638,-48.19897198678131,-20.533653466016748,49.112158696070125,-37.808334714998395,22.256759919512767,13.668602733563883,154.632,-0.5709244999866883,5
21.423155325177635,-45.33877930143095,-22.75777113222258,47.85927586956615,-34.403289727836594,20.688383001414195,12.52902596533213,154.636,-0.5669244999866976,5
22.339408600201125,-45.301021348760806,-24.78371081472555,47.65514328217027,-33.79761998933921,20.458856535584626,13.428943734869526,154.64,-0.5629244999867069,5
23.84693477222715,-47.36643449591342,-26.119871158242596,48.22800837993101,-35.61440108168958,21.41422551132255,15.61153807236486,154.644,-0.5589244999866878,5
25.177939225451205,-49.621175098939624,-26.794768125628124,48.963884937470986,-38.150709341043985,22.697846635323685,17.72698176736582,154.648,-0.5549244999866971,5
25.780712587060357,-50.677179221562405,-27.160774686239872,49.49769557401272,-39.911176914875405,23.50087841933414,18.969844242270458,154.652,-0.5509244999867065,5
25.8072155373234,-51.03344999383915,-27.270185575776527,49.98528906163219,-41.01629343861755,23.874279807499,19.653144601778653,154.656,-0.5469244999866874,5
25.989064720273298,-52.543314605124344,-26.655485201103556,50.78624854558824,-42.93120624175521,24.68348705174639,20.671205730375164,154.66,-0.5429244999866967,5
26.893693808060597,-56.2621186080974,-24.9283393636205,51.91676555173355,-46.58752844085776,26.580726718531626,22.386800334249873,154.664,-0.538924499986706,5
28.20555679973986,-60.77875331101555,-22.60543413574259,52.90215055677813,-50.78183213728552,28.971865518973587,24.08644670855208,154.668,-0.5349244999866869,5
28.788891125986947,-62.96041494462998,-21.12943379767705,53.25038482971752,-52.73415380209973,30.16125523870531,24.62347134999695,154.672,-0.5309244999866962,5
27.624710443475845,-60.74925510088502,-21.78519484056271,53.07615417951485,-50.6145439939204,28.784292364712012,23.66383694766541,154.676,-0.5269244999867055,5
24.83488096437478,-55.413165384701834,-24.429414233332047,53.16281013548875,-45.668559366503494,25.260422768677632,22.253025115996188,154.68,-0.5229244999866864,5
21.796821060058093,-50.86107617881076,-27.34216128327056,54.26877029764409,-41.62752999757042,21.765100109406927,22.000075992542612,154.684,-0.5189244999866958,5
20.127273966779953,-50.35788381995587,-28.534632308335084,56.28645305191239,-41.59930420809956,20.531419400643834,23.546673917054367,154.688,-0.5149244999867051,5
20.399553065836916,-53.6447232294463,-27.402770942321467,58.12159878540911,-45.2474893808916,21.959610481081683,25.814221220331646,154.692,-0.510924499986686,5
21.78122066001381,-57.318393647142166,-25.17329116390698,58.54473048199676,-49.075460706888734,24.344190761355836,26.897003614571503,154.696,-0.5069244999866953,5
22.943722502373028,-58.261736355057316,-23.67882892836817,57.31771204069007,-49.775310470403575,25.561824945529615,25.892616265236356,154.7,-0.5029244999867046,5
23.36341552246983,-56.848185097917415,-23.60611728331577,55.54555534048479,-47.54559168169403,25.14842206408477,23.942501135887838,154.704,-0.49892449998668553,5
23.729068961072723,-56.687843536009986,-23.89758178482949,54.8478542967254,-46.10065873043991,24.736807566653297,23.372353226827975,154.708,-0.49492449998669485,5
25.047856817933567,-60.98360395299853,-22.888669533373488,56.0242433941866,-49.161937622804025,26.368697406249122,25.593413490806785,154.712,-0.4909244999867042,5
27.364999083476754,-68.97191594329335,-20.08131133697989,58.38653597991499,-56.66788120782206,30.288186395335813,29.68138702936777,154.716,-0.4869244999866851,5
29.446904661490976,-76.02046511286895,-16.826122336572578,60.35027582898778,-64.37241367809659,34.40240690792577,33.01941372913362,154.72,-0.4829244999866944,5
29.840723958493694,-77.5118216040472,-15.222148417560279,60.744398316773236,-67.37738913702763,36.031740118133015,33.49449676523516,154.724,-0.4789244999867037,5
28.317548206457808,-72.95293400209172,-16.237102024983773,59.66883006121743,-64.40260051991253,34.35058174087152,31.255676538441293,154.728,-0.4749244999866846,5
26.249125041758546,-66.43722896817016,-18.78533932283247,58.18895551795009,-58.84438716795318,31.204408693271294,28.42446620597587,154.732,-0.47092449998669395,5
25.459159620254354,-63.00031448509014,-20.612486868397077,57.25028410658985,-55.65814956808898,29.493798052615052,27.067709142116954,154.736,-0.46692449998670327,5
26.57985267428692,-64.25748509365845,-20.2021705236724,56.880251960288305,-56.969512350244635,30.59840506555814,27.370658267442103,154.74,-0.46292449998668417,5
28.46161846217374,-67.29607046762193,-18.054554126304424,56.38875173250246,-60.40611053044437,33.19234460982361,27.714020319870883,154.744,-0.4589244999866935,5
29.206294035257727,-67.64295205984622,-16.30005204227441,55.27004458368112,-61.50849339007165,34.47900403467798,26.49615483857543,154.748,-0.4549244999867028,5
27.869293882060635,-63.367434516289975,-17.045073955080543,53.84716184083868,-57.832391852493444,32.659099026474905,23.869345574489742,154.752,-0.4509244999866837,5
25.275000481632212,-56.582760088124495,-20.80718341973356,53.01273739705637,-51.01914990503933,28.425402389179748,21.695953145029037,154.756,-0.44692449998669304,5
23.256575412360533,-51.312616373479145,-26.170257662587947,53.35825199284895,-45.23565590619372,24.297405229284685,21.80629730776662,154.76,-0.44292449998670236,5
23.086674756243465,-50.05956829473467,-30.753943747351023,54.59221581047717,-43.720565530904175,22.57149665899871,24.283690347270515,154.764,-0.43892449998668326,5
24.52008633734341,-52.22903155227812,-32.68836498069684,55.828820514438085,-46.56090195783584,23.716643119755048,27.412748519274263,154.768,-0.4349244999866926,5
26.185091446893235,-55.36575606356927,-31.625527341302238,56.428174677187364,-51.254842490172244,26.38198195116679,29.250877819796386,154.772,-0.4309244999867019,5
26.798013766958285,-57.439319153229064,-28.796037822215492,56.51340002265809,-54.95523754585563,28.654158319753076,29.22502241193072,154.776,-0.4269244999866828,5
26.054162184153313,-57.86406725405369,-26.231088003052033,56.64262197827549,-56.15162971375497,29.30511084789816,28.244889960533733,154.78,-0.4229244999866921,5
24.54324148806381,-56.760490323098416,-25.64388035070963,57.00991898739681,-54.70357297655797,28.157243869928553,27.39753930497686,154.784,-0.41892449998670145,5
23.018799506930456,-53.94072249494956,-27.543322861572513,57.06519717851222,-51.01402763973551,25.706644003467893,26.70743230734703,154.788,-0.41492449998668235,5
21.83183350536263,-49.12224475005986,-31.011938196369844,56.03408031505151,-45.70821369920845,22.690200665704985,25.286282159519033,154.792,-0.41092449998669167,5
20.96762753012067,-43.12836564865519,-34.26158449101826,53.87612784931255,-40.09678779904447,19.970477473385117,22.672505085899616,154.796,-0.406924499986701,5
20.42656073437539,-38.41618522028038,-35.65809681339946,51.69138367301135,-36.4167062733668,18.508728005477234,19.86431589418267,154.8,-0.4029244999866819,5
20.409380958539103,-37.81209886454457,-34.6017809311299,51.034757404843425,-36.901515333342275,19.056690077158976,18.81456668847525,154.804,-0.3989244999866912,5
21.10103783980465,-42.26634500566675,-31.728367996381888,52.63338106976782,-42.08317275158924,21.628828067074313,20.714638776991094,154.808,-0.39492449998670054,5
22.33933275128056,-49.681351826443915,-28.36981441284214,55.63865115655733,-49.85573608954373,25.24813072814858,24.68078769284332,154.812,-0.39092449998668144,5
23.56899829630619,-56.07096646162107,-25.73689956338048,58.148259707158154,-56.43637188528918,28.34731558181064,28.179664325015718,154.816,-0.38692449998669076,5
24.159347428570744,-58.228597715317854,-24.416090288691407,58.63382394067532,-58.72984004099319,29.63876089176863,28.942595783987787,154.82,-0.3829244999867001,5
23.801003121899253,-55.74932725298424,-24.411774537215393,57.099063069632386,-56.30080649411453,28.82551397624906,26.736328116533443,154.824,-0.378924499986681,5
22.660955860074807,-50.88666071603142,-25.472464438243275,55.0064344026659,-51.42990973336182,26.649578117043013,23.472066507852787,154.828,-0.3749244999866903,5
21.234062083569125,-46.61816050653335,-27.284536842433837,54.056186751968724,-47.31072580863154,24.31911196358642,21.604062358474447,154.832,-0.37092449998669963,5
20.067697607962923,-44.6472058839242,-29.40377478531064,54.85517779285043,-45.89255535401789,22.798886591935563,22.221774030503813,154.836,-0.36692449998668053,5
19.54333389057476,-44.789755745990455,-31.171239393190834,56.557086310090426,-46.97246749860355,22.432879361270324,24.400163075849324,154.84,-0.36292449998668985,5
19.761121159861364,-45.80038613793869,-31.905698444019222,57.69337713355632,-48.95449633658024,23.00702709659626,26.199055528524216,154.844,-0.3589244999866992,5
20.500328784701658,-46.57639972779366,-31.338643692015832,57.42266215239487,-50.358775088437014,24.035293296399374,26.315534274750625,154.848,-0.3549244999866801,5
21.273562527664534,-46.70759876006804,-29.926957121640704,56.14373285024952,-50.77129475409456,25.006151809822367,24.982403448066922,154.852,-0.3509244999866894,5
21.520363285018917,-46.19643545559991,-28.71084916703441,55.02865055183218,-50.6300416511762,25.489584974528803,23.498727462430626,154.856,-0.3469244999866987,5
20.88962351587676,-44.91977334446709,-28.75946614877124,54.96023469668181,-50.29993487798649,25.160272316273147,22.9690438423931,154.86,-0.3429244999866796,5
19.431350157812567,-42.45611645490586,-30.59029750354712,55.80825231296072,-49.40687355022376,23.824129882350803,23.389555155552653,154.864,-0.33892449998668894,5
17.54005458275774,-38.42670922276667,-33.9402076238309,56.61755428225976,-47.05834833791815,21.483330075201124,23.784326244297098,154.868,-0.33492449998669827,5
15.693158525799952,-33.0256675373707,-37.955287533319215,56.474853442636125,-42.75541198665508,18.417322557119707,23.15103253178924,154.872,-0.33092449998667917,5
14.211550463849727,-27.2800121450322,-41.58207348547941,55.273577979486205,-37.186172384162695,15.216052137364674,21.347077433973705,154.876,-0.3269244999866885,5
13.22673961754083,-22.766477438021635,-43.921527267183805,53.74280253599568,-32.149171395066666,12.678141303117801,19.189492643617843,154.88,-0.3229244999866978,5
12.803281201721592,-20.84771149350003,-44.4726422090182,52.77348489554489,-29.52924309036575,11.523334185739117,17.749496509878412,154.884,-0.31892449998670713,5
12.996834834750254,-21.822497242785783,-43.296181988513204,52.66731280710464,-30.02322583786581,12.001388891541648,17.476368535768263,154.888,-0.31492449998668803,5
13.727328323286804,-24.551856733881138,-41.06420495235956,52.95555815448405,-32.58162492474753,13.637266955770087,17.877533177447315,154.892,-0.31092449998669736,5
14.612187506332585,-26.942854365165395,-38.87402157179912,52.90139163977269,-35.04510026139188,15.364332102201418,17.984064950049714,154.896,-0.3069244999867067,5
15.028239610787638,-27.127309892781533,-37.791376358736144,52.19688015780716,-35.55090738999096,16.067843263825875,17.176630609087976,154.9,-0.3029244999866876,5
14.478006547928498,-24.595760419591052,-38.325677717246236,51.22147548732721,-33.6766949164713,15.22760865602962,15.671042362023272,154.904,-0.2989244999866969,5
12.999601532949644,-20.457066915527665,-40.185324510045085,50.65235626493236,-30.498137820733316,13.208577222079327,14.279994226344728,154.908,-0.2949244999867062,5
11.236900366922068,-16.59873210881897,-42.512701115287975,50.81437996238447,-27.61483202374456,10.975685275829989,13.699299642714992,154.912,-0.2909244999866871,5
10.042037758165556,-14.393436631388377,-44.44227736992212,51.386496301632114,-26.007458313023157,9.447600717012248,13.967037537523744,154.916,-0.28692449998669645,5
9.89560523896822,-13.9647552181321,-45.57510486047359,51.73825701912428,-25.63225780178431,8.976618051969842,14.561637570327669,154.92,-0.28292449998670577,5
10.606848258395365,-14.514883994277001,-46.051294932612734,51.574356039728066,-25.925800432305273,9.30598014694242,15.004794914129178,154.924,-0.27892449998668667,5
11.522576006968766,-15.27602650942245,-46.2452872644496,51.26977189734784,-26.581481036896793,9.942878874066398,15.367568032385858,154.928,-0.274924499986696,5
12.04726476983651,-16.156125659965078,-46.39190795892573,51.56043270409525,-27.817114302936865,10.57512853574083,16.182321912155086,154.932,-0.2709244999867053,5
12.045658266914877,-17.555578342324317,-46.43880552153395,52.854969363315135,-29.959444287006303,11.208501856360538,17.844698664274038,154.936,-0.2669244999866862,5
11.844154681386778,-19.688863761490154,-46.17156924132994,54.79312893664698,-32.876212223845094,12.007765275286738,20.09159633334471,154.94,-0.26292449998669554,5
11.89562580559989,-22.174923847221233,-45.43562169727011,56.4592662811023,-35.88062088797931,13.06274177766672,22.07353256810176,154.944,-0.25892449998670486,5
12.40345830362668,-24.26889751020367,-44.271226718845284,57.068836492036915,-38.17264846130153,14.273156357382607,22.96732153730432,154.948,-0.25492449998668576,5
13.160999520034379,-25.384045662005164,-42.9252896392012,56.53244944384472,-39.30959238405827,15.362048012575377,22.56343070881017,154.952,-0.2509244999866951,5
13.6640856668955,-25.310771470835085,-41.804382544892434,55.4393240516068,-39.238465200884946,15.935365299899882,21.314844198210274,154.956,-0.2469244999867044,5
13.396936942595083,-24.010710601310784,-41.38937734411734,54.53713212296456,-37.997781545772376,15.584113569197495,19.879686856443403,154.96,-0.2429244999866853,5
12.148478531039753,-21.442641080569764,-42.05382203349387,54.20147357221174,-35.612059062102425,14.101552788703588,18.65701728421099,154.964,-0.23892449998669463,5
10.219936239097027,-17.825783786552243,-43.78455896082041,54.315399894535794,-32.43385625640585,11.776263415807545,17.73259945433815,154.968,-0.23492449998670395,5
8.386776858305128,-14.079288058056807,-45.98603702707931,54.541308078864084,-29.5092102218596,9.502476674699631,17.143973695126917,154.972,-0.23092449998668485,5
7.542518816823708,-11.70523728044977,-47.63911772646517,54.62779416915407,-28.275457773303778,8.42598244931328,17.0235173449277,154.976,-0.22692449998669417,5
8.145754956716717,-11.802384524799855,-47.88233641463682,54.46880286230333,-29.49652433662837,9.1867905930827,17.379896863962326,154.98,-0.2229244999867035,5
9.816309926345335,-13.910543126924578,-46.68225278552188,53.98058823353254,-32.28143162531825,11.283585358270669,17.793744019616174,154.984,-0.2189244999866844,5
11.441038487101853,-15.888425019570175,-45.03258160534528,53.0662947883001,-34.2730330916894,13.176072396363415,17.5106340448395,154.988,-0.21492449998669372,5
11.826904016771044,-15.286465616214112,-44.378328390240256,51.775246201294394,-33.182952634696235,13.230165802572277,16.01543062051291,154.992,-0.21092449998670304,5
10.48025100097194,-11.242663623708824,-45.58540702478668,50.448249656235355,-28.534704233384186,10.863728379992578,13.570545844679838,154.996,-0.20692449998668394,5
7.913225490746573,-5.230368022467367,-48.244147569023724,49.574714437365806,-22.079578365227757,6.966561298370274,11.09959273023621,155.0,-0.20292449998669326,5
5.213912506934013,0.12360781930257578,-50.92530449416974,49.393088497416024,-16.416802474326733,3.204476673378383,9.407021471465505,155.004,-0.19892449998670259,5
3.226841565139382,3.1695771424540853,-52.25378044258989,49.61665063681862,-12.980392922221732,0.7654575642406038,8.455646456158961,155.008,-0.19492449998668349,5
2.029122843052879,4.398035243214675,-51.94997179974122,49.63220591874219,-11.179934428391158,-0.39455450465133746,7.465096727774008,155.012,-0.1909244999866928,5
1.1157313203935624,5.605945215758431,-50.972928639650746,49.063710862534464,-9.416733439022101,-1.198352817149319,5.802627497135752,155.016,-0.18692449998670213,5
0.05487878342704837,7.952228996710177,-50.652734632622135,48.16683277864526,-6.90695400953001,-2.392745377631768,3.7784934610014576,155.02,-0.18292449998668303,5
-1.046515400092102,10.8551952496193,-51.57797571177235,47.60985881284001,-4.472414357222605,-3.8282912778565827,2.460142684484369,155.024,-0.17892449998669235,5
-1.7096435658420608,12.814157685480145,-53.21008975326537,47.780986880567376,-3.503143799366675,-4.748102649279833,2.5758352017064645,155.028,-0.17492449998670168,5
-1.6810371610503805,13.270673384007766,-54.5248464081582,48.27915218425601,-4.157704047640731,-4.751616209679194,3.5653782582647557,155.032,-0.17092449998668258,5
-1.323747342797222,13.53421543137561,-55.04030286169743,48.14121885288647,-4.69909591491018,-4.424324873059289,3.812036708202074,155.036,-0.1669244999866919,5
-1.3732624880669304,15.704423719006002,-55.25113428598162,46.677915011755196,-2.801519701986763,-4.946713328171699,1.9902910734458736,155.04,-0.16292449998670122,5
-2.2703124409467863,20.54300161772737,-56.06591423937622,44.17833349430219,2.2811961584087146,-7.002552573060172,-1.6637520170550504,155.044,-0.15892449998668212,5
-3.715503128949176,26.36225925015041,-57.790904614240326,41.81470967280229,8.7102976601442,-10.012030124504552,-5.368828715402801,155.048,-0.15492449998669144,5
-4.883270499757914,30.080391360726093,-59.6307261060745,40.795299328157135,13.217770059292178,-12.431319540957048,-7.148144601385922,155.052,-0.15092449998670077,5
-5.097188878802517,29.54837476248621,-60.19316208575366,41.495389304017515,13.444303585292289,-12.872206865412512,-6.325509821827281,155.056,-0.14692449998668167,5
-4.340592822369289,25.08928331158224,-58.56419357347636,43.29393469304885,9.460581822673632,-11.065392987752656,-3.8736204437063684,155.06,-0.142924499986691,5
-3.168227475685442,19.0044338766801,-55.024588737033866,45.174930943333734,3.3366249749338768,-7.898074425165686,-1.4250991570626987,155.064,-0.1389244999867003,5
-2.177325491188612,13.714660982426103,-50.83937224139306,46.47840040615774,-2.5592504716855733,-4.642555325157582,0.025442140841011016,155.068,-0.1349244999866812,5
-1.582561468787541,10.314624758644138,-47.377469716068745,47.14121710439721,-6.87636076116292,-2.162381892135921,0.5429319751138065,155.072,-0.13092449998669053,5
-1.2536783510515819,8.630608498296096,-45.32570259498471,47.34419014988848,-9.269221882794119,-0.7240508139453725,0.597854994591225,155.076,-0.12692449998669986,5
-1.0559233328519357,8.244409545957291,-44.53930602831971,47.068022814052455,-9.617193844235826,-0.3187485312703936,0.2187393766681333,155.08,-0.12292449998668076,5
-1.047992502712599,9.10659225415588,-44.4369554852453,46.08129899693214,-7.710819158139584,-0.918165923155992,-1.073958181834534,155.084,-0.11892449998669008,5
-1.3249693841890433,11.098491142036082,-44.45669287830416,44.363018293961126,-3.844622191179737,-2.330636772596975,-3.504588209727278,155.088,-0.1149244999866994,5
-1.7541693811839092,13.293843253677474,-44.24849383342617,42.46338217382834,0.5358310460500887,-3.9470312952740154,-6.343361963671795,155.092,-0.1109244999866803,5
-2.0030629498150563,14.131141258970073,-43.68667330432065,41.337943461740366,3.271972306532126,-4.909170488949474,-8.142150284157369,155.096,-0.10692449998668963,5
-1.9125174980957036,12.692472103818613,-42.92786950542754,41.70722344891352,3.033187475945066,-4.770163307190326,-7.822332717963614,155.1,-0.10292449998669895,5
-1.8058154983815742,9.879516297687292,-42.490539829358816,43.47566427616484,0.6089901715263675,-4.0388981186243225,-5.628917299013764,155.104,-0.09892449998667985,5
-2.2900090017722854,8.058850232264822,-43.07643521742586,45.728214594826994,-1.488460647672942,-3.9100637364567934,-3.0220962237639,155.108,-0.09492449998668917,5
-3.6071995097845346,9.109648455744544,-45.01489951819035,47.33917330595032,-1.088001271242769,-5.201208860240058,-1.5375126022371148,155.112,-0.09092449998669849,5
-5.137940227313246,12.47734038478648,-47.70084529610949,47.72778831679145,1.6007309721718999,-7.3861572772938695,-1.5809168730331837,155.116,-0.0869244999866794,5
-5.643825438206924,15.113308359659904,-49.65190379622061,47.20229538058573,3.8556364659766973,-8.709199942510143,-2.16631102928461,155.12,-0.08292449998668872,5
-4.190154225020539,13.640778758737785,-49.40458173311197,46.68016714585077,2.5096189655567898,-7.469255494514307,-1.7665734174984977,155.124,-0.07892449998669804,5
-1.001170571416605,7.07929418792234,-46.668433270413985,47.03044316632796,-3.4514451875231367,-3.4616998565280044,0.4730115316314442,155.128,-0.07492449998670736,5
2.5366681702530336,-2.143420330144036,-42.74924713770588,48.50071530187459,-11.931173346597104,1.6753082425377814,4.111149099781637,155.132,-0.07092449998668826,5
4.797355796587698,-9.754492008059346,-39.75589762035711,50.56698249200469,-19.147031866122568,5.5502563005465655,7.74282690540009,155.136,-0.06692449998669758,5
5.016349316592304,-12.47147835602575,-39.15711827006195,52.240729516843324,-22.149304308072182,6.633249814609757,9.88757228611452,155.14,-0.0629244999867069,5
3.6647132198752086,-9.838005920144102,-40.87203711046773,52.61314369586559,-20.375384193490802,5.0655844804254,9.741985827936462,155.144,-0.058924499986687806,5
1.8551988518301858,-3.82924145703546,-43.61849389871985,51.33356132409696,-15.274802683223385,2.1273893602837837,7.40638850276779,155.148,-0.05492449998669713,5
0.3980936539468143,3.0048584779875216,-46.099020304207286,48.794608837735936,-8.830648876435912,-0.9467608093241218,3.678869020297076,155.152,-0.05092449998670645,5
-0.631230609282824,9.022654328517065,-47.87717048074287,45.95304031102321,-2.541153067549753,-3.6415761220734892,-0.2845643598913076,155.156,-0.04692449998668735,5
-1.5279296506866757,13.52504108355404,-49.20599873439552,43.879563530549575,2.4763170640674854,-5.855457157216499,-3.291536135872367,155.16,-0.042924499986696674,5
-2.3144512815900464,15.93483326658424,-50.193618202835815,43.24984590818108,5.027996023459287,-7.240329061830547,-4.464276651968174,155.164,-0.038924499986705996,5
-2.5648624674795872,15.522747661100304,-50.36124350193438,44.02345205119697,4.1548487993163254,-7.14515346683409,-3.6297890753655113,155.168,-0.0349244999866869,5
-1.8883719645366834,12.21921595209101,-49.155947345451615,45.485074675366846,0.217332669769131,-5.3476607541088095,-1.5296432331298437,155.172,-0.03092449998669622,5
-0.5159114514894938,7.514104868205345,-46.8438327610367,46.65408641743458,-4.544984045932287,-2.725794664882072,0.46233163770066077,155.176,-0.02692449998670554,5
0.717853728530282,4.008693188461766,-44.673977255059256,46.86333034709748,-7.156425875427512,-0.901959418207042,1.14248528460431,155.18,-0.022924499986686442,5
1.0821901622700925,3.498404262009051,-43.91908808740192,46.172840331791065,-6.2414847762602506,-0.9259290312120452,0.333067138804042,155.184,-0.018924499986695764,5
0.6690493538732029,5.246649195344913,-44.66438931177843,45.331025032463025,-3.4662983955362527,-2.2121195103191402,-0.9039163640473078,155.188,-0.014924499986705086,5
0.3516085204644298,6.3625161065903155,-45.65186228709589,45.25761699431283,-2.3831798323156943,-2.926443257899448,-1.0102562440565201,155.192,-0.010924499986685987,5
0.9389618136361629,4.344102127071482,-45.50379270131419,46.37057391743187,-5.314248421347098,-1.6724580994168012,0.8368613639386042,155.196,-0.006924499986695309,5
2.325682047056334,-0.43005670383525474,-44.175634418182646,48.253222430211466,-11.037903949825596,1.069986636496585,3.9947039580791355,155.2,-0.0029244999867046317,5
3.5159349219629066,-4.784787383051711,-43.093662695755825,49.95611363431981,-15.660308777998356,3.25617618398853,6.810534116534689,155.204,0.0010755000133144677,5
3.575699886486001,-5.6379818113729465,-43.674652895103904,50.73360932054132,-16.17361683401531,3.218141774456664,7.958800559008212,155.208,0.005075500013305145,5
2.6169689660046846,-3.0902962629203325,-45.64030368682519,50.61557456381611,-13.452811783394047,1.4274375129820793,7.523430690336739,155.212,0.009075500013295823,5
1.8109946056119268,-0.6143494662429324,-46.935481201907045,50.30332885288107,-11.656885837864671,0.25949772536122084,6.8328953221604545,155.216,0.013075500013314922,5
2.332800600481819,-1.8632198507485613,-45.57545644203097,50.45544665016,-14.292593778530847,1.7885601127058561,7.15446270796274,155.22,0.0170755000133056,5
4.205828878875409,-6.980958851537149,-41.75940121587706,51.00872361160771,-20.550581568644358,5.634053185941568,8.442335959633912,155.224,0.021075500013296278,5
6.17831781774248,-12.042037236975707,-38.12135170220227,51.194650317000345,-25.562379426267533,9.005098072522408,9.347702158180281,155.228,0.025075500013315377,5
6.80902289651717,-12.407634173731244,-37.65586551671071,50.28098358397695,-24.639962758227846,9.079550546704716,8.533905421470998,155.232,0.029075500013306055,5
5.766829347394241,-6.975983955584531,-41.119336817619455,48.35378979255569,-17.66214305938871,5.575372326165444,6.061472366477341,155.236,0.03307550001329673,5
4.1120224982957705,0.714517715923594,-46.333132298294935,46.36708352811077,-9.416299282984385,1.0749703779486814,3.4808374610005246,155.24,0.03707550001331583,5
3.290148562996915,5.647990221947124,-50.0989907029389,45.3642978701815,-5.42904395696427,-1.2654458507115767,2.4910438554892362,155.244,0.04107550001330651,5
3.8097847664780073,5.777215565904846,-50.98128462455273,45.58762492277624,-7.129267596439423,-0.4991666556637083,3.4350936214967698,155.248,0.04507550001329719,5
4.8733675964750045,3.528755164720707,-50.38876128476395,46.3254459862571,-10.870493205159969,1.4397681794693544,5.091917563001779,155.252,0.04907550001331629,5
5.282714704134949,3.0297748148512254,-51.007397207098954,46.63909182842773,-11.654383749602214,1.756047850306814,5.954151758980469,155.256,0.053075500013306964,5
4.683016657320824,5.8952204046107015,-54.129743175816735,46.248640492492,-7.904963834099834,-0.49001956162406657,5.697849017117134,155.26,0.05707550001329764,5
3.8936649586917618,9.732451821846361,-58.39718827428379,45.71343534546872,-2.736282261232479,-3.5710162335574567,5.364934643066904,155.264,0.06107550001331674,5
4.015256662933511,10.704758979410915,-61.041969224976484,45.76924299917194,-0.6881158145690293,-4.867202575004964,6.108028973034141,155.268,0.06507550001330742,5
5.248622431979456,7.428762516480698,-60.341029220739166,46.5371482957613,-3.3274725019476987,-3.386015881001754,7.839984359467196,155.272,0.0690755000132981,5
6.650397483362384,2.2649325719649736,-56.97169225941998,47.42054970589025,-8.04495235711974,-0.5528822394248473,9.233647094746997,155.276,0.0730755000133172,5
7.085205494286788,-1.157650809304994,-53.16891716211649,47.76054317314839,-10.994989635486757,1.3775197643597683,9.098289175113335,155.28,0.07707550001330787,5
6.398409456401936,-1.492510365350681,-50.713602936472725,47.520417779262736,-10.954212886751655,1.5554954287632599,7.686003524147143,155.284,0.08107550001329855,5
5.592136503327351,-0.6429097528897264,-49.73145023622352,47.26124768792587,-10.126584458832935,1.1351038734045678,6.512456383288417,155.288,0.08507550001331765,5
5.800015140851588,-1.2983274463195682,-49.25362670487791,47.45154402493763,-11.248465696914513,1.7330027677601052,6.815857914562691,155.292,0.08907550001330833,5
7.0983215683910625,-3.7912611986136864,-48.665593374416524,47.88003099645635,-14.223617184962146,3.469433079798904,8.232686113346046,155.296,0.093075500013299,5
8.389462924834096,-5.6717397395674425,-48.405742063288784,47.83088660839817,-15.95078846071078,4.709115708957984,9.098805021376778,155.3,0.0970755000133181,5
8.52445857577224,-4.481519397417081,-49.2304215290128,46.85513369269885,-13.614617615046884,3.817433185996128,8.129533087009577,155.304,0.10107550001330878,5
7.56203449278063,-0.8121144658132994,-50.942568825615076,45.320582914937425,-8.048215822900746,1.125411657208586,5.794870049402491,155.308,0.10507550001329946,5
6.880144330815326,1.6259870265662186,-52.049916306101316,44.146060530669516,-3.6170610570071466,-0.970814736016917,3.985600211074358,155.312,0.10907550001331856,5
7.965902519273017,-0.831275651810653,-50.84977352565904,43.98319266004652,-4.556281170572088,-0.0004968138005529398,4.288731982522814,155.316,0.11307550001330924,5
11.01926057183777,-8.44445849199001,-46.962054608032595,44.683094423581366,-11.251505291108694,4.369140702916417,6.5865226927957625,155.32,0.11707550001329992,5
14.713863359046417,-17.785626139492013,-41.83240279056652,45.569921276674584,-20.012560601844505,10.011424023053054,9.335380873128972,155.324,0.12107550001331902,5
17.35306524148402,-24.770799635134924,-37.67048294833911,46.18657495469315,-26.458868766763874,14.202168633531707,11.158342520529018,155.328,0.1250755000133097,5
18.32246494343417,-28.059567493209176,-35.738725920623395,46.697380448952856,-29.188207148566967,15.886086386260938,12.080568783751568,155.332,0.12907550001330037,5
18.47301254441657,-29.633703275839537,-35.491965042827935,47.52945734749071,-30.30049234378465,16.25234463709026,13.171346133454586,155.336,0.13307550001331947,5
19.114506641809054,-32.20394711263179,-35.28083738194001,48.670954229920746,-32.54467731913316,17.202264802327367,15.041736139647789,155.34,0.13707550001331015,5
20.628411793281657,-36.137158898566994,-33.93489598865277,49.426441196424776,-36.10246599349445,19.287131275183857,16.832536615823933,155.344,0.14107550001330083,5
22.044268911889013,-38.92703514432979,-31.79877664327358,48.95866986325954,-38.20241602118153,21.110075121565767,16.81521391207057,155.348,0.14507550001331992,5
21.97440864753001,-37.679748395987225,-30.325475076262034,47.12081147440216,-35.87874170284396,20.71626106748338,14.072483985677666,155.352,0.1490755000133106,5
20.005192265286265,-32.20415265774716,-30.620464293218447,44.75681660375724,-29.15931046178566,17.61022592386906,9.611692619838676,155.356,0.15307550001330128,5
17.228748504480393,-25.77377752612316,-32.246673577595544,43.14151704102384,-21.633290837955503,13.497724877639438,5.78575151853053,155.36,0.15707550001332038,5
15.418337301004412,-22.80045003704682,-33.37787790887733,43.03840708747601,-17.840891551401185,11.062770531271005,4.4997045775739055,155.364,0.16107550001331106,5
15.593912769146772,-25.41129640866379,-32.23876841808202,44.18705801918263,-19.78247816771853,11.857213297516353,5.7943589086185705,155.368,0.16507550001330173,5
17.238640844597878,-31.80301681345531,-28.663972706460203,45.61494815120964,-25.495527943366106,15.103996573370809,8.004931894103294,155.372,0.16907550001332083,5
18.795111786528977,-37.6523298418066,-24.462447860102607,46.44524269161735,-30.731071100187364,18.353216923884506,9.252277400065717,155.376,0.1730755000133115,5
18.936813203692925,-39.33637174211501,-22.211929010186562,46.51209707215304,-32.17238523118368,19.35642589502242,8.915349812616858,155.38,0.1770755000133022,5
17.513962994768434,-36.408989878986645,-23.37049887751113,46.35122806097141,-29.606494534982225,17.621908261408006,7.898883974332137,155.384,0.18107550001329287,5
15.476250773360691,-31.596898977082233,-27.153059252450287,46.68594565901189,-25.609707999957653,14.540924917296001,7.656544879821593,155.388,0.18507550001331197,5
14.010766152702796,-28.628753668491573,-31.026358968669893,47.876291343155664,-23.39290673997627,12.210918457629356,8.950043423649914,155.392,0.18907550001330264,5
13.721625541502673,-29.74755262883618,-32.419204861390405,49.722124593968836,-24.67699118845466,12.02117708791612,11.378821455293616,155.396,0.19307550001329332,5
14.461958892787829,-34.675113929209154,-30.34956655593134,51.67686037625239,-29.041197891691226,14.017402907643895,13.909656200147625,155.4,0.19707550001331242,5
15.734294558849175,-41.40300790218876,-25.832331661449395,53.24202375545487,-34.76895506018318,17.250467736967018,15.777508572550264,155.404,0.2010755000133031,5
17.113429829234743,-47.773454861097484,-20.945193340697426,54.247440901266614,-40.12891432763996,20.549697110359315,16.936994688574206,155.408,0.20507550001329378,5
18.30467541147115,-52.51156236438404,-17.41163745490663,54.856071756227294,-44.06528165811682,23.05425786486399,17.77347644484506,155.412,0.20907550001331288,5
18.96456701941318,-55.22382365934285,-15.744792084027303,55.34363410704665,-46.13546444175682,24.30867041452372,18.487208644143422,155.416,0.21307550001330355,5
18.69074427547646,-55.92495613814872,-15.371736204984419,55.85729063251335,-46.26494722906244,24.195553105926347,18.81805155827942,155.42,0.21707550001329423,5
17.34109755458532,-54.880949431134745,-15.372070182823032,56.354634055451,-44.813068543294285,22.97763740772176,18.392719139493977,155.424,0.22107550001331333,5
15.364955344580544,-52.86247970705372,-15.160529110861843,56.75289122441138,-42.77494338501067,21.35605683327924,17.324048800655092,155.428,0.225075500013304,5
13.680801891526265,-51.17086798199647,-14.711415634260433,57.108391121707605,-41.52780134989026,20.234989601760937,16.385902351152385,155.432,0.2290755000132947,5
13.038444965642487,-50.94116497152292,-14.361967793094795,57.603013970254466,-41.936750102963956,20.144891084215946,16.45353284746878,155.436,0.23307550001331379,5
13.379858848845528,-52.160418555821124,-14.451001416238613,58.31898516007354,-43.50257514846619,20.76631510370862,17.648836007898257,155.44,0.23707550001330446,5
13.8416837564552,-53.4869822699335,-15.01662944626361,59.05319356665488,-44.5559664369529,21.11422537032784,19.050475459712075,155.444,0.24107550001329514,5
13.506819359807727,-53.39809739730469,-15.692072517334068,59.44643942597846,-43.692861226892724,20.41008177930095,19.41969057644434,155.448,0.24507550001331424,5
12.276679153440773,-51.795924480118124,-15.889238158210345,59.384988916812446,-41.32000349698394,18.926292927887566,18.417205137171642,155.452,0.24907550001330492,5
11.033690955379637,-50.430842644395334,-15.236858584548296,59.26796570283464,-39.71935799738694,17.930520020563456,17.154882547552837,155.456,0.2530755000132956,5
10.867246629746905,-51.407281281067,-13.998733527331341,59.75757510431048,-41.19093170735203,18.600670265418927,17.37145451627409,155.46,0.2570755000133147,5
12.02746326733714,-54.9645232363531,-13.060037823702885,61.12031737066706,-45.72933214634144,20.813860926369475,19.792251642023775,155.464,0.2610755000133054,5
13.591765511646825,-58.73873531307453,-13.318448754250616,62.77199666936119,-50.469179399563636,22.99782778013244,23.164773505748318,155.468,0.26507550001329605,5
14.215617789609466,-59.545760922896356,-14.872433293196194,63.57984368572503,-51.768538869927475,23.353688745838404,25.037582864847156,155.472,0.26907550001331515,5
13.323489980265517,-56.27642868824828,-16.743089837929524,62.79177713083299,-48.332336031039816,21.44810576309238,23.78848168302677,155.476,0.2730755000133058,5
11.641644197282803,-51.16519736925301,-17.533133436096154,60.78089514232899,-42.54996302261364,18.69946177353674,20.12629271481427,155.48,0.2770755000132965,5
10.54895928184223,-47.99986488854066,-16.58900411698084,58.845559262405004,-38.61781516337453,17.205321643312956,16.60684398133588,155.484,0.2810755000133156,5
10.81627588189878,-48.72404742808884,-14.665540502314844,58.1455972127385,-38.933650473411554,17.889129558910238,15.472235750267728,155.488,0.2850755000133063,5
11.889916832622161,-51.56603939417659,-13.432397543512684,58.71044968700258,-41.96617294064254,19.635452918106736,16.72879044060035,155.492,0.28907550001329696,5
12.38561464842575,-52.54228679602758,-14.18259654739192,59.453667526585086,-43.583493236522074,20.229172553202428,18.239921851728315,155.496,0.29307550001331606,5
11.346557280109979,-49.04668765949642,-16.849810297151443,59.20502822360423,-40.70171223753493,18.280200940519876,17.766423749948725,155.5,0.29707550001330674,5
9.126100417985382,-42.25047425053551,-20.16140435239827,57.79650039492298,-33.99843337966539,14.430189282374924,15.057521887315916,155.504,0.3010755000132974,5
7.118862029472783,-36.141292342420975,-22.70122666299422,56.17764655528874,-27.32100275718054,10.819311525553353,12.047701652280901,155.508,0.3050755000133165,5
6.617590126518555,-34.15671373210798,-23.866069150682794,55.47018776143761,-24.442955623773226,9.36433409668351,11.013626521924362,155.512,0.3090755000133072,5
7.823729005118664,-36.501125239650015,-23.93605089782701,55.889190125169065,-26.11874232963583,10.379509175111352,12.463490161713795,155.516,0.31307550001329787,5
9.824852025042757,-40.4050091066656,-23.43964056807373,56.56163480841946,-29.885412920786163,12.614224844621132,14.729350917442165,155.52,0.31707550001331697,5
11.441232464931193,-42.75601134299126,-22.641790674712343,56.378876133224956,-32.42787882486647,14.441870504744783,15.563701739669174,155.524,0.32107550001330765,5
12.11996214011356,-42.51297940911402,-21.664660308019414,55.03059605097834,-32.16307842971827,15.02840318411518,14.161756771644649,155.528,0.3250755000132983,5
12.14253662910909,-40.90776736452903,-20.89216285006398,53.24853443877801,-29.913799340968698,14.585842848619889,11.736815639054706,155.532,0.3290755000133174,5
12.124221117202413,-39.76367402545032,-20.93252228126573,52.103298509169555,-27.595831792453733,13.811071738915366,10.25343673388247,155.536,0.3330755000133081,5
12.39070377929097,-39.871496539102644,-21.976579782412063,52.09194384328099,-26.543793375584443,13.259921746251955,10.649300328275281,155.54,0.3370755000132988,5
12.794776550672177,-40.84037247113074,-23.250340321313818,52.85832023504904,-26.944887868857307,13.18060352753862,12.201900348042034,155.544,0.3410755000133179,5
13.020852352668681,-42.07178064857996,-23.368802758487682,53.68343095591136,-28.388117067954646,13.676084683638436,13.448332482803815,155.548,0.34507550001330856,5
12.98138512043423,-43.49462298829108,-21.501762257687847,54.14892532467871,-30.50365449722115,14.777125627738183,13.592603670348975,155.552,0.34907550001329923,5
12.92112263165049,-45.34349577035087,-18.273550730293096,54.33455317619897,-33.006262271522246,16.316053803277626,13.051579161039117,155.556,0.35307550001331833,5
13.192330954673002,-47.550264960336655,-15.381256196756704,54.4997698541556,-35.452043811861465,17.886938659627333,12.804525500498878,155.56,0.357075500013309,5
13.947853170440295,-49.677369270182055,-14.1243243726061,54.72504572614945,-37.345723614792774,19.104530934639854,13.369987426351354,155.564,0.3610755000132997,5
14.992655896962457,-51.449726903145205,-14.217285347807023,54.91307200594754,-38.58003716076074,19.92670355521465,14.414617953588332,155.568,0.3650755000133188,5
15.854563108159308,-53.051035321379054,-14.124955034099552,55.04612903333615,-39.52937652893017,20.60192984432294,15.202744898590383,155.572,0.36907550001330947,5
16.010509596692803,-54.62422283322558,-12.710477046603007,55.287140951280264,-40.43725797180206,21.197891221380143,15.27641608227745,155.576,0.37307550001330014,5
15.18838914614177,-55.5502871778163,-10.612068199250091,55.7435708220322,-40.72922669943856,21.248538244930387,14.71108386340061,155.58,0.37707550001331924,5
13.636827287595064,-54.619725574496194,-9.897458709643036,56.18119561568284,-39.26498555900001,20.078803221730606,13.885343718130736,155.584,0.3810755000133099,5
12.17076979186795,-51.30970023957896,-12.168209828406269,56.10110164721477,-35.621082618055084,17.653991525990488,13.17312972096712,155.588,0.3850755000133006,5
11.813461455963466,-46.92937428289746,-16.857176824939707,55.202353078556065,-31.15591227256469,15.073825442531307,12.852823403351058,155.592,0.3890755000133197,5
13.116208866024177,-44.13077170323545,-21.403187246413726,53.77668126205292,-28.45590724585326,13.977858029087189,13.119118038338174,155.596,0.3930755000133104,5
15.607133781790063,-44.78468096531024,-23.275091136203237,52.575786460600085,-29.259755698286703,15.173324577842612,13.963282979567445,155.6,0.39707550001330105,5
17.903500878023475,-48.06907655236462,-22.063922683417918,52.20566021662731,-32.68992350216148,17.72622091029485,14.98754073299839,155.604,0.40107550001332015,5
18.58249388798996,-50.77466450363331,-19.758852466133234,52.607405381995115,-35.66536842539325,19.51992805405183,15.489058071122896,155.608,0.40507550001331083,5
17.225451615347605,-49.87332600061189,-18.983502968444853,53.136626611631876,-35.41506072815291,18.957779699405332,14.95203177082483,155.612,0.4090755000133015,5
14.770480962421766,-45.14673718673564,-20.813398834804058,53.18053734420067,-31.895632245547446,16.322564496429052,13.582185464035675,155.616,0.4130755000133206,5
12.802476648587716,-39.43828876737862,-24.090036888155975,52.728150354665864,-27.835122449938424,13.520544922190748,12.312276180028702,155.62,0.4170755000133113,5
12.324879673413793,-36.24606271505133,-26.677481698119497,52.35935525830094,-26.313655631938264,12.418174785061616,12.134790328332752,155.624,0.42107550001330196,5
13.057446110262255,-36.86697873913769,-27.336134200379504,52.68325675616419,-28.148064264127832,13.312907033496122,13.297567303722461,155.628,0.42507550001329264,5
13.864346836613334,-39.679393358035135,-26.485723343223192,53.76966346259951,-31.51178357389573,14.93729450379737,15.105595472143845,155.632,0.42907550001331174,5
13.892600503116023,-42.04757422614482,-25.363472090043334,55.09313539155537,-34.00609166488408,15.895119874877425,16.536282211523403,155.636,0.4330755000133024,5
13.346901866201977,-42.84662573378601,-24.644255663160973,56.007131546160785,-35.01936946913577,16.049644199365172,17.106573254354842,155.64,0.4370755000132931,5
13.18391707790849,-43.17256967623685,-23.956797465904913,56.29077332376829,-36.0373634747939,16.491310616735706,17.2007295985232,155.644,0.4410755000133122,5
14.051882871681295,-44.74382071303222,-22.660347439827184,56.28915873531995,-38.71459606288633,18.17683497138305,17.600887637361442,155.648,0.44507550001330287,5
15.527910850666235,-47.78422745402922,-20.91884169794758,56.5634182196638,-42.76731524717599,20.669420609338292,18.70963471948446,155.652,0.44907550001329355,5
16.411284420432693,-50.546448191870276,-19.8629665267613,57.379995982347225,-45.85425321845562,22.290368701711337,20.182018832595972,155.656,0.45307550001331265,5
15.806018999800205,-50.865655034874045,-20.631722374434474,58.45570110682687,-45.56392071785059,21.57065874543668,21.228919275095375,155.66,0.4570755000133033,5
13.969147698055542,-48.12947011528568,-23.249262714730676,59.13000496551124,-41.56392816751301,18.612049740134466,21.23145859382812,155.664,0.461075500013294,5
12.135286659791836,-43.78765421638844,-26.44991991940788,58.813195814155534,-35.91435506579055,15.080358212466525,20.12308851517301,155.668,0.4650755000133131,5
11.4995024915625,-40.084259636328916,-28.622124990983494,57.39631710734284,-31.400262012646703,12.881534486928564,18.329292554125242,155.672,0.4690755000133038,5
12.297191833182161,-38.3615213713244,-28.991686657163523,55.36315359809198,-29.53702823542129,12.764115166763466,16.46577566587163,155.676,0.47307550001329446,5
13.763317650959383,-38.44666987956156,-28.017202525957014,53.535269424142626,-29.944037834654157,14.031696728483364,15.077626436587376,155.68,0.47707550001331356,5
14.899224975808563,-39.37088418224267,-26.77259101484942,52.60129513327761,-31.28089917967493,15.423340310132867,14.50051395754799,155.684,0.48107550001330424,5
15.280302201240929,-40.44183115047062,-25.987964567946474,52.728901094175626,-32.56719451826064,16.208767434349788,14.779019506911393,155.688,0.4850755000132949,5
15.223444986460779,-41.65962446765175,-25.585084164345222,53.53022669110747,-33.71819757635892,16.5612571983236,15.647977332464073,155.692,0.489075500013314,5
15.312499622015086,-43.369722078324756,-24.961905847544823,54.413042776501776,-35.17662611148262,17.108039802356135,16.674671836479227,155.696,0.4930755000133047,5
15.831793481654186,-45.742658982773264,-23.622572641073386,55.03582006630525,-37.30917071722504,18.267526135544255,17.539262657568003,155.7,0.49707550001329537,5
16.596542664205167,-48.52813947178498,-21.602413660534765,55.46699690471495,-40.07590856896244,19.94226074982469,18.20066138253741,155.704,0.5010755000133145,5
17.183719731766622,-51.02051280205073,-19.46940702922771,55.896799263110005,-42.91217498835539,21.612417521925327,18.709158302831874,155.708,0.5050755000133051,5
17.22393708428801,-52.078953728131935,-18.036306634331204,56.195513589447884,-44.66476249251912,22.55495976446002,18.80561241678634,155.712,0.5090755000132958,5
16.514915545229186,-50.397586777415604,-17.989569514152613,55.82589787321082,-43.82706604922556,22.062125879299778,17.811283043053972,155.716,0.5130755000133149,5
15.025943766885591,-45.297195107143565,-19.549656647225742,54.31706987807148,-39.412603957187905,19.76509192568812,15.151350140912038,155.72,0.5170755000133056,5
12.960404622195542,-37.700068005680926,-22.27160928036557,51.911309522201144,-32.121064797436496,16.04428921110894,11.176738727977378,155.724,0.5210755000132963,5
10.839884048977423,-30.283655721162926,-25.164808741344068,49.69474931267174,-24.669145864458574,12.156244189471495,7.4267327758449175,155.728,0.5250755000133154,5
9.388906025778047,-26.1248539541574,-27.214051553402385,48.90779931574017,-20.441987093555937,9.690430434335596,5.793756825261917,155.732,0.529075500013306,5
9.140406969840015,-26.52463140219104,-28.044658834106183,49.92444373576554,-21.112402967170507,9.533542223332333,7.083300274529871,155.736,0.5330755000132967,5
10.034825702436452,-29.84557063609586,-28.203874718688382,51.82802932328461,-25.197213996221418,11.155767985095038,10.228036340189595,155.74,0.5370755000133158,5
11.420983433100922,-32.68031252013808,-28.72286823950264,53.080594199399386,-29.089768109134337,12.966636575356171,13.024734660918588,155.744,0.5410755000133065,5
12.549441390255252,-32.63806068480272,-30.23578579327428,52.79609947006518,-29.977088563342033,13.58975379809134,13.915640383007275,155.748,0.5450755000132972,5
13.1579766648769,-30.36270247505035,-32.403037325593665,51.506533448261564,-28.1665014475337,12.98885268903245,13.278878446006804,155.752,0.5490755000133163,5
13.612181843437144,-28.890406332279536,-34.179295269334055,50.70437693501808,-26.69699628826999,12.418943210785624,13.031195900642746,155.756,0.553075500013307,5
14.47418703127219,-30.87280612173747,-34.69560208335697,51.548065040766964,-28.571913535971316,13.24578918849189,14.872280480534744,155.76,0.5570755000132976,5
15.935025105509013,-36.24957383308629,-33.92700630540153,53.89787073423848,-34.196386919540096,15.757705762949808,18.782365455330623,155.764,0.5610755000133167,5
17.673139716402382,-42.54683677293325,-32.52465670471171,56.5408726064321,-41.37108315561882,19.080809441011272,23.147754869418016,155.768,0.5650755000133074,5
19.244468293394938,-47.40099198813344,-31.036160337631706,58.338589971664284,-47.64521516349756,22.180728049211073,26.31858117499242,155.772,0.5690755000132981,5
20.542963749481107,-50.69915171692477,-29.368125874404,59.17077644148407,-52.507142818055534,24.83315627043239,28.027523947986747,155.776,0.5730755000133172,5
21.80186754913627,-54.14605355927968,-27.087825819952897,59.790052506725694,-57.16282883260672,27.520139545563474,29.28464861041388,155.78,0.5770755000133079,5
23.122419797240518,-58.7425092317341,-24.25222872737395,60.80187024831866,-62.258349639478986,30.397245281010644,30.93155227201722,155.784,0.5810755000132986,5
24.072079743117538,-62.88689885427062,-21.832431816610523,61.85022817202444,-66.1490756313094,32.53456039379799,32.411537993250604,155.788,0.5850755000133177,5
23.878860382110606,-63.276867201840766,-21.151774562390017,61.86445619759879,-65.83330123234283,32.41836559099317,32.10026082587105,155.792,0.5890755000133083,5
22.142725631738006,-57.965055637817215,-22.765450556848997,60.13926428899196,-59.882843573175236,29.383374963708405,28.947984883403063,155.796,0.593075500013299,5
19.402200345854066,-48.639266352463245,-25.85450637051591,57.16713013684668,-50.46683843857661,24.577277713948515,23.814002964906518,155.8,0.5970755000133181,5
16.95182855177874,-39.78802849729669,-28.790789593572995,54.36995418399651,-42.23744774006094,20.383776564513777,19.110706530641618,155.804,0.6010755000133088,5
15.981128958543842,-35.345250641249194,-30.417538439182792,52.95286436032983,-38.84856999951423,18.68524158364455,16.992124177428,155.808,0.6050755000132995,5
16.746660423339787,-35.80890006436951,-30.87466528532782,52.9551825466507,-40.23562659721916,19.497801334356744,17.71954764256927,155.812,0.6090755000133186,5
18.471344945558588,-38.36328448670982,-31.20774118878832,53.3702595841034,-43.12768808460183,21.200492943622983,19.656616286815005,155.816,0.6130755000133092,5
20.013319817277264,-39.70501433386765,-32.15992907405402,53.171866982180205,-44.2220849168128,22.095693246913527,20.80614827836345,155.82,0.6170755000132999,5
20.691105024839295,-38.85087840992383,-33.33365995860308,52.24779045257005,-43.007022335936405,21.827104999287226,20.425560227766752,155.824,0.621075500013319,5
20.591517766794773,-37.44886380571417,-33.555184073738324,51.39300984406602,-41.70618591531685,21.397694490270684,19.328011693637876,155.828,0.6250755000133097,5
20.218512447339617,-37.61406194863988,-32.11696202572661,51.45141334144061,-42.653684722592295,21.908931735578385,18.805851172600157,155.832,0.6290755000133004,5
19.916430005771083,-39.56084190867435,-29.71777910173089,52.47381867086652,-45.768081911967535,23.31585755892196,19.340596686813196,155.836,0.6330755000133195,5
19.601674661105903,-41.246341105408604,-28.173858968919152,53.6632852382684,-48.485158487355136,24.370459747309493,20.26993891499909,155.84,0.6370755000133101,5
18.955618361202458,-40.17889736197959,-29.08521564170368,54.084452028971384,-48.03880411646099,23.728519788348365,20.534326941622055,155.844,0.6410755000133008,5
17.801657794674895,-35.59917609362992,-32.57436348984708,53.43723417554632,-43.857587711482424,21.137478577833686,19.654756746904525,155.848,0.6450755000133199,5
16.30275287777647,-29.143942919319812,-37.1410259472994,52.2384068207431,-37.992158159136146,17.664038624085666,18.071928703150117,155.852,0.6490755000133106,5
14.86374520525384,-23.644032613754568,-40.71515631054961,51.36178322410184,-33.470620373702026,14.881568989561154,16.722711879089385,155.856,0.6530755000133013,5
13.891946980113637,-21.248828004215973,-42.02898768797461,51.41050626295414,-32.21733094301524,13.814740781387481,16.377952610750594,155.86,0.6570755000133204,5
13.615813027794317,-22.309379627592378,-41.270479720102514,52.39658157538384,-34.15975449034383,14.468668840853226,17.258550394007354,155.864,0.6610755000133111,5
14.029094419030269,-25.538792236224204,-39.65861963805152,53.831076087123854,-37.790688302452935,16.107628141037914,19.020301529536642,155.868,0.6650755000133017,5
14.918815723960074,-28.992246718263274,-38.43237042760415,55.031407597326435,-41.3040642235443,17.84601773160144,20.932440316523802,155.872,0.6690755000133208,5
15.944239146789808,-31.129581069734986,-38.0753924045424,55.448986565605274,-43.42591257638947,19.074334918099023,22.163325420172782,155.876,0.6730755000133115,5
16.77129379880993,-31.48555393517548,-38.25776180365678,54.93840878078416,-43.75727410895961,19.592314092824743,22.19857317537304,155.88,0.6770755000133022,5
17.227595373028826,-30.747707281727983,-38.364701053971324,53.89052712307196,-42.82499536637539,19.56969509212584,21.249586113848085,155.884,0.6810755000132929,5
17.370086513036814,-30.186461401752975,-38.10493227949428,53.0783961530984,-41.82796216703246,19.407840387661444,20.263032794483046,155.888,0.685075500013312,5
17.384994368484186,-30.652154655981374,-37.7463516030593,53.16269043884792,-41.91042831015286,19.47616374342601,20.285086018435457,155.892,0.6890755000133026,5
17.39280020762262,-31.778308569269715,-37.86279362710649,54.124476141605385,-43.21390120991048,19.803697935629007,21.534029121429683,155.896,0.6930755000132933,5
17.35114788545471,-32.13120559276522,-38.82105668833235,55.121169351870996,-44.5249670760251,19.99570054093082,23.009211578866154,155.9,0.6970755000133124,5
17.16833823142336,-30.400064145691232,-40.40336078795659,55.03351116063023,-44.134904021174115,19.568054137283855,23.16842542548451,155.904,0.7010755000133031,5
16.90663458776322,-26.705640311616307,-41.87895758356377,53.36630794203543,-41.41343393422404,18.48226661374612,21.242822685859345,155.908,0.7050755000132938,5
16.819470309689443,-22.752711426620234,-42.53678347399606,50.74417251669246,-37.6461424342624,17.337115481852496,18.034879026644315,155.912,0.7090755000133129,5
17.11435378080326,-20.467469937878377,-42.3164323118863,48.502464443419285,-35.10790286475483,16.893312808662852,15.381674081634097,155.916,0.7130755000133036,5
17.644651509011325,-20.249302240622853,-41.9984491963517,47.664934515346715,-35.00861742867856,17.28106857242462,14.665714268870456,155.92,0.7170755000132942,5
17.875140068885862,-20.53133572830443,-42.66636909023702,48.18845805558991,-36.24218155862235,17.689050124046627,15.687238128641406,155.924,0.7210755000133133,5
17.244278207770215,-19.22702081851377,-44.749077644859874,49.1349659628806,-36.30879545449667,16.98544492630376,16.92020482091574,155.928,0.725075500013304,5
15.647126357488839,-15.788869161491265,-47.42750748684409,49.574092138187105,-33.704459326823546,14.807129288192034,16.892488191290926,155.932,0.7290755000132947,5
13.59377979988641,-11.876317110927856,-49.03939565980623,49.35200154945171,-29.50695469391174,12.078380976841306,15.39850513846643,155.936,0.7330755000133138,5
11.864729126183605,-9.888802474726965,-48.32162983259754,49.03871897126494,-26.525700644635457,10.35679305615647,13.47589179835496,155.94,0.7370755000133045,5
10.95029420745282,-10.71907601842985,-45.52446687752626,49.200148905080454,-26.72933817215815,10.516016638202274,12.306421317378723,155.944,0.7410755000132951,5
10.765797245866851,-12.910721948319305,-42.400295856105004,49.78522999669393,-29.404332332770917,11.973156670760059,12.1911662238744,155.948,0.7450755000133142,5
10.864765022829584,-14.053037596536713,-40.96867677112466,50.236871796595764,-31.828270532343936,13.203953853445737,12.544394227134228,155.952,0.7490755000133049,5
10.896237667486337,-13.027265035077182,-42.04440626818792,50.148911088196925,-31.78214506303484,13.069741571668656,12.738926038948048,155.956,0.7530755000132956,5
10.849841442060338,-10.885165009848775,-44.76522284284228,49.73242886546201,-29.446939008618774,11.71064673432884,12.804409819458659,155.96,0.7570755000133147,5
10.898611543764806,-9.562283020689712,-47.4733271942666,49.58995663461202,-26.922594949893863,10.216974345544898,13.252662640928476,155.964,0.7610755000133054,5
11.088111370737717,-9.843033477297565,-49.08749404847428,50.048828392362815,-26.026325043810736,9.507148282300092,14.312764524181972,155.968,0.765075500013296,5
11.257851087793478,-10.702469198939754,-49.71721783675381,50.76976393872201,-26.668953618918263,9.571321536638028,15.489704091458357,155.972,0.7690755000133151,5
11.276970341895577,-10.623119841324497,-50.091577925775695,51.047235850014914,-27.3323458036637,9.758622188632694,15.964215190220733,155.976,0.7730755000133058,5
11.279726127957726,-9.356428453887451,-50.56914374792477,50.49097955252303,-26.892734409737702,9.64391249563554,15.403688435433649,155.98,0.7770755000132965,5
11.558469089733954,-8.145638488858829,-50.84153159709974,49.392777888814955,-25.70478515242494,9.440556240343051,14.300152019491568,155.984,0.7810755000133156,5
12.169295583455536,-8.143907099740991,-50.59862809870023,48.42385891327022,-24.836996267250548,9.519675668731336,13.466701300234707,155.988,0.7850755000133063,5
12.69372344821033,-8.802521549733822,-50.303423886221815,47.99459489873978,-24.47975916343532,9.66846595965651,13.228920292784371,155.992,0.789075500013297,5
12.513149735688883,-8.137293223073026,-51.05408996766994,47.92349763717233,-23.469427370945283,9.06044584072966,13.163717348097382,155.996,0.7930755000133161,5
11.42455591013711,-4.796175249912547,-53.50886503089403,47.71074079217849,-20.590282190524192,7.116920776145268,12.64310499286993,156.0,0.7970755000133067,5
9.998341117893077,0.1652208478570016,-56.95423562162287,47.092798915398625,-16.26693858638135,4.3763542100656485,11.58845911678988,156.004,0.8010755000132974,5
9.246766803539316,3.751743479360724,-59.58135106480979,46.309795993668864,-12.718747528509843,2.3558249241209666,10.635967392629768,156.008,0.8050755000133165,5
9.827057342344572,3.457656004916693,-59.84588156213767,45.85563344999185,-12.234291972165803,2.392505179450836,10.547321557599552,156.012,0.8090755000133072,5
11.499209897175827,-0.6520927241269154,-57.65204309773112,46.008750236552096,-15.230678806448733,4.5453784112634015,11.481476083315464,156.016,0.8130755000132979,5
13.360700266382032,-6.206451204417926,-54.242535676868826,46.616203475189415,-20.02193672701465,7.63195395467236,12.862065912057608,156.02,0.817075500013317,5
14.646281074143973,-10.795464861689245,-50.97488587276593,47.29779193254553,-24.463074365232764,10.343795544682411,13.945556548316034,156.024,0.8210755000133076,5
15.335213745188362,-13.949157733269438,-48.25793105781321,47.81468609875685,-27.75488430683647,12.312262495294318,14.49981075867961,156.028,0.8250755000132983,5
16.0084464350961,-16.970047907353855,-45.65719564048356,48.2356978699576,-30.666781802626765,14.10948304967452,14.940397995735971,156.032,0.8290755000133174,5
17.147902594665176,-21.04300413706264,-42.86835354715138,48.78821158522482,-34.193899044900824,16.321695250077596,15.847447299147262,156.036,0.8330755000133081,5
18.606065339224283,-25.738405922398165,-40.349188769222884,49.588230439026994,-38.245019760314364,18.767791657514632,17.370527016169493,156.04,0.8370755000132988,5
19.755248427310885,-29.40559216383944,-38.88182882493836,50.504638810884174,-41.701421623480286,20.66859497557381,19.06036039848922,156.044,0.8410755000133179,5
20.099335741851483,-30.818104486055653,-38.63839643054356,51.23325479368495,-43.53016738535979,21.45537248452146,20.198705281901113,156.048,0.8450755000133086,5
19.670375890566916,-30.15317026726716,-38.94215772596764,51.471735394392034,-43.52474903752966,21.217532101452168,20.260433644353345,156.052,0.8490755000132992,5
18.816859286215035,-28.303925551928117,-39.109952375308694,51.062603085896995,-41.89341428266894,20.29284302628615,19.134986811507563,156.056,0.8530755000133183,5
17.692852877793598,-25.515637759484136,-39.424190263407176,50.05626398546122,-38.455985473560936,18.590472883773735,17.056223749423705,156.06,0.857075500013309,5
16.097993851886436,-21.125016226885172,-40.980063112418954,48.70021819038044,-32.75394280455253,15.618634896386752,14.442175205203034,156.064,0.8610755000132997,5
13.911265841760235,-14.87050567977144,-44.34501397137747,47.35561302301082,-25.230173984850694,11.370383411807625,11.808431359420934,156.068,0.8650755000133188,5
11.642216614686875,-8.308562844145095,-48.40124401432444,46.35767019559589,-18.122680597690213,7.101429203542339,9.731171442334665,156.072,0.8690755000133095,5
10.391892949574334,-4.517124836301398,-50.77531795204711,45.90015554152845,-14.682304172052056,4.9268088639645615,8.755889605333236,156.076,0.8730755000133001,5
11.071508845487495,-5.969472066496604,-49.702756784541194,46.03907658258294,-16.97885757658722,6.30891743802424,9.231583561530362,156.08,0.8770755000133192,5
13.524452467545201,-12.431695340602587,-45.61174383602722,46.797284930797936,-24.165650827178002,10.741059721983724,11.146292883480967,156.084,0.8810755000133099,5
16.40202311570623,-20.865804120755254,-40.84458815675833,48.208231324165695,-32.84212916748619,15.905625872501185,14.036641132626679,156.088,0.8850755000133006,5
18.006064289253704,-27.458266710285898,-37.7292407735245,50.16900473454289,-39.250761929194056,19.25427745126489,17.008922937942977,156.092,0.8890755000133197,5
17.437903781872482,-29.974307604128317,-36.84387059955663,52.21895562743216,-41.423888892307644,19.650264866630984,18.934942820056968,156.096,0.8930755000133104,5
15.126514580727338,-28.567836779342393,-37.08209311007087,53.564769381916655,-39.675399397736115,17.739258060984437,18.894787263520968,156.1,0.897075500013301,5
12.380845008379353,-24.838137940618115,-37.263844105037045,53.528673171122335,-35.56141837474702,14.986658317815516,16.767223923084984,156.104,0.9010755000133202,5
10.438669131148755,-20.451660554423256,-37.49626067116408,52.14407107950493,-30.693798740708388,12.489458884070055,13.569520871572008,156.108,0.9050755000133108,5
9.793904918424854,-16.55039735502683,-38.86642484199999,50.31562728610937,-26.37115094406435,10.601175258021174,11.077265678535793,156.112,0.9090755000133015,5
10.180635126517796,-13.884935528881089,-41.8984915993086,49.223841401634395,-23.67005783967927,9.34556870362201,10.70343973609477,156.116,0.9130755000133206,5
10.976763150873175,-12.808025695693072,-45.54183499489009,49.358340244283156,-23.128890362963325,8.79590162770386,12.347746030686306,156.12,0.9170755000133113,5
11.571022879151506,-12.82060355338308,-47.873047711105436,50.03740978784079,-24.031065686300536,8.887446659114898,14.228837624681884,156.124,0.921075500013302,5
11.505812512139372,-12.39445537961267,-47.85163294189216,49.94734237458471,-24.322632774116112,9.032218834720146,14.083347374176745,156.128,0.9250755000132926,5
10.540151821940702,-9.827736752121883,-46.33892423119527,48.309254974488574,-21.882365311253643,8.267332954425479,10.93228654371605,156.132,0.9290755000133117,5
8.77780131669678,-4.714513955310443,-45.339817136951595,45.625925525239026,-16.343285294009398,6.03923503567358,5.954654508662054,156.136,0.9330755000133024,5
6.75106167145779,1.38447621071941,-46.220868060859864,43.283939750302345,-9.700064745984118,2.8657421141023867,1.6357130602620804,156.14,0.9370755000132931,5
5.238379371256851,5.950044790261759,-48.61514385416044,42.354070233497204,-4.8687222172415545,0.0921850745602846,-0.1508133981740922,156.144,0.9410755000133122,5
4.825207088686976,7.397053316529436,-50.92979905041118,42.71996098274617,-3.413832059756094,-1.127280304356538,0.528690026561245,156.148,0.9450755000133029,5
5.53965073875524,6.057300690240285,-51.767729528825924,43.35945346664315,-4.616373524447104,-0.6453128396753474,2.0730109973097135,156.152,0.9490755000132935,5
6.899603538338409,3.3486289584018043,-50.8438571523019,43.4660423328014,-6.735222519318578,0.8448544340330661,3.019950408045813,156.156,0.9530755000133126,5
8.332971883038216,0.13974655578260467,-48.73866666180454,43.25780655179301,-9.014195415239866,2.680163524149695,3.342173562280892,156.16,0.9570755000133033,5
9.563734185385949,-3.8329264770338334,-46.09872967394901,43.6433345208571,-12.195818693579502,4.78436408629677,4.136042052022537,156.164,0.961075500013294,5
10.606712497930793,-8.859189719275266,-43.27829353902665,45.09511595299837,-16.972367235251216,7.30542445662524,6.102597585998725,156.168,0.9650755000133131,5
