Fz,FC3,FC5,F3,FC4,FCz,Cz,Time,t_rel,idx
20.39845275651911,-51.584132809884245,-18.44093173393599,49.951996302612635,-33.372420594121365,19.907640947114743,13.139395131695121,173.696,-1.998625600008296,6
21.78853276476679,-57.92139370027858,-14.476028045412624,51.18364628158628,-38.0755844655616,22.714790188590428,14.786036976309305,173.7,-1.9946256000083054,6
23.024232980584443,-62.54222944112879,-13.402562106868494,52.747171040161085,-41.77106112285716,24.51920703076629,17.425241619342618,173.704,-1.9906256000082863,6
24.783148516497373,-66.35027892506302,-14.703030126327459,54.53198721086525,-45.88951612011983,26.291838771596336,21.335850672551363,173.708,-1.9866256000082956,6
26.819160498966802,-70.83621992480332,-15.392483326757556,56.499593464090204,-51.5798279542239,28.913342878419904,25.57643436430788,173.712,-1.982625600008305,6
27.809147917162033,-75.55296456971249,-13.029525448407767,58.33766915558684,-57.47657389542125,31.772000344053396,28.14024649673923,173.716,-1.9786256000082858,6
26.63556391389371,-77.82490185284078,-8.504451203803088,59.35001911472314,-60.1229903546199,32.99354483033907,27.473215552307824,173.72,-1.9746256000082951,6
23.831751845198998,-75.29304593373584,-5.6872542143438976,58.900028914567464,-57.07817052464812,31.24666548876522,24.08002442419617,173.724,-1.9706256000083044,6
21.51283605677704,-68.77647718757409,-7.926778772657709,57.099806081963145,-49.77935156507546,27.344271544435674,20.525693842131375,173.728,-1.9666256000082853,6
21.57186314015877,-62.30071468726779,-14.605221948971499,55.01331242199361,-43.063334236036255,23.89629873808697,19.487796572036192,173.732,-1.9626256000082947,6
23.808470691688278,-59.87622459899485,-21.182659344419427,53.98657429908744,-41.35550867854576,23.153703658112867,21.46564397307146,173.736,-1.958625600008304,6
25.93535554471864,-61.99645551470742,-22.95331944101505,54.58498143840116,-44.931209841758616,25.048462090440193,24.312185723921086,173.74,-1.954625600008285,6
25.631360478834004,-65.30673824980671,-19.11893774682916,56.11495523588226,-49.82520553848461,27.34016872506084,25.16439709534339,173.744,-1.9506256000082942,6
22.724215183385645,-65.84214835068659,-13.366822916297867,57.23896658824469,-51.55345832266156,27.75342797858884,23.045819839426855,173.748,-1.9466256000083035,6
19.3675092366926,-62.70891160926276,-10.425932488517793,57.15727398689066,-49.1456126981263,26.053967795327893,19.701705776995706,173.752,-1.9426256000082844,6
18.02785108409935,-58.69834969772665,-11.875714834761439,56.26598690174553,-45.74184601145115,24.116509009109443,17.905563548984915,173.756,-1.9386256000082938,6
19.262734713646005,-57.44188404900697,-15.085704879728826,55.70460878783371,-45.412311614182165,24.048874743834478,18.923682297603754,173.76,-1.934625600008303,6
21.43733423668762,-60.0887255930729,-16.052411523367176,56.27738997401294,-49.44969542883245,26.290080272049664,21.5860280625223,173.764,-1.930625600008284,6
22.53941558232257,-64.68610099667399,-13.218923637694541,57.78591557448284,-55.60148092847686,29.45700233510382,23.72417207093616,173.768,-1.9266256000082933,6
22.163450239379326,-68.44829072807008,-8.685074186633491,59.31770714772507,-60.53720016277027,31.841554753544404,24.34785293682504,173.772,-1.9226256000083026,6
21.672680363014816,-70.21487348388362,-5.985569169431428,60.067876357240806,-62.71043798079882,32.86948439742801,24.30083951643022,173.776,-1.9186256000082835,6
22.506994110556818,-70.61917475483953,-6.885170309223031,59.85142431499959,-62.84021718314453,33.11591743633756,24.87022638531311,173.78,-1.9146256000082928,6
24.505713115437615,-70.32324383543889,-10.227502136043244,58.9558258883207,-62.123100015831255,33.16940498604682,26.042901997508228,173.784,-1.9106256000083022,6
26.009629813104812,-68.8217327905633,-13.520471926703298,57.74047862014026,-60.6736738362261,32.82945763373079,26.43631248651681,173.788,-1.906625600008283,6
25.58420337258076,-65.38841385594807,-15.293237365745329,56.535534490842544,-58.029605468158664,31.561991312891063,25.02952751353768,173.792,-1.9026256000082924,6
23.520035032337002,-60.91279579725674,-15.92196225734121,55.830803580568876,-54.81428408297371,29.55700166286915,22.741201861796622,173.796,-1.8986256000083017,6
21.548942073675665,-58.024103862946774,-16.55760744815876,56.240376570897155,-53.10545039041715,27.972183168778937,21.925659888170927,173.8,-1.8946256000082826,6
21.100800352517716,-58.74520042713167,-17.69610980862737,57.97255239657419,-54.5627380050566,27.882333011897646,24.048362479826082,173.804,-1.890625600008292,6
21.91820565448798,-61.981987606941495,-18.900488391349096,60.28283408854018,-58.2243045458542,29.028428274700318,27.877312526416297,173.808,-1.8866256000083013,6
22.42612145653774,-63.866243539327726,-19.616940939645172,61.69386309193564,-60.721840589238845,29.85559558863079,30.229444931107572,173.812,-1.8826256000082822,6
21.420342386933694,-61.193532011397636,-19.873903480767556,61.0984548994749,-59.26163101959296,29.005258911545102,28.80501031380446,173.816,-1.8786256000082915,6
19.311674882423365,-54.7146387359597,-20.092633564969614,58.82640672544593,-54.53490896134464,26.773243033411468,24.430856620993215,173.82,-1.8746256000083008,6
17.671512907979395,-48.72028726888834,-20.48529466058261,56.53280374905024,-50.34361860630065,24.912927172748827,20.431956705993155,173.824,-1.8706256000082817,6
17.588244062504437,-46.922642188960054,-20.961287803455086,55.79060699036508,-49.9108695290494,24.827812957237718,19.588135511357294,173.828,-1.866625600008291,6
18.53943216476951,-48.59461452096429,-21.635799959370075,56.618092784455314,-52.443651587323615,25.97139678481275,21.5451443336204,173.832,-1.8626256000083004,6
18.927517538631626,-49.050817342451836,-23.08551377051947,57.415567815625465,-53.64032209334761,26.22627712571556,23.207290726346265,173.836,-1.8586256000082813,6
17.727127717135264,-44.371916861234986,-25.716319972156708,56.51592525655275,-50.023363358441955,24.072133012779602,21.796414205366023,173.84,-1.8546256000082906,6
15.575830413186555,-35.83837939341399,-28.812126010776886,53.93327339550042,-42.93326185454581,20.41823028703756,17.656433163012153,173.844,-1.8506256000083,6
14.202812253725419,-29.453711106587207,-30.535254078662433,51.57045899565801,-37.9732932095415,18.11640037811525,14.072586767292467,173.848,-1.8466256000082808,6
14.743634194830866,-30.589504410295767,-29.32472654289891,51.55811539067938,-40.00054656852079,19.39235576786452,14.220672168340705,173.852,-1.8426256000082901,6
16.592682150234673,-38.71779295406495,-25.53527411915772,54.23335217437305,-48.29649833463688,23.58827473554438,18.135256347707447,173.856,-1.8386256000082994,6
17.92733476444879,-47.429323591750006,-21.576439067379013,57.703784294925896,-56.71753029848735,27.49137626028905,22.600797637952617,173.86,-1.8346256000082803,6
17.41561254099064,-49.99983506220234,-20.09554805909611,59.47876915021596,-58.999293959339525,28.11253091730422,24.087764472127166,173.864,-1.8306256000082897,6
15.464930709975409,-45.35185093450515,-21.732656765861144,58.660991692481524,-54.340439468449155,25.361213231367383,21.937811534991162,173.868,-1.826625600008299,6
13.793287018308078,-38.705375203213045,-24.596536247388993,56.62088668826507,-47.904498521185715,22.036036369599408,18.75619989561522,173.872,-1.82262560000828,6
13.705570513027496,-36.217027826485555,-26.083933712305882,55.51614967622322,-45.61795917914283,21.04694995579238,17.65025057289119,173.876,-1.8186256000082892,6
14.718732280631896,-38.726662917472666,-25.400191931696316,56.09778251379136,-48.16041727577828,22.46690654116599,19.00385078935803,173.88,-1.8146256000082985,6
14.896981570613743,-40.713088420907205,-24.381712101851427,56.94629468423993,-49.995410732096325,23.279474603729156,19.96746039627215,173.884,-1.8106256000083079,6
12.671977545654554,-35.652506644347355,-25.781274829278935,55.91012548296833,-44.62041708041101,20.205254112189586,17.266841413224853,173.888,-1.8066256000082888,6
8.497976038818011,-22.802181608643398,-30.585114563293672,52.382211489182396,-31.26012874029073,13.051870519111999,10.71536686511541,173.892,-1.802625600008298,6
4.763643191872373,-8.89774182018131,-36.867837622741824,48.20360504568875,-16.644234398096746,5.422497942344167,4.020067661114613,173.896,-1.7986256000083074,6
3.9191010523383962,-2.8770990789125106,-41.26466990609964,46.245936092533235,-9.890180590244269,1.9629645934726216,1.9039478369121967,173.9,-1.7946256000082883,6
6.397668188618806,-8.21716538273988,-41.72568395588984,47.90545050358464,-14.84114892298918,4.487628768432111,5.993250800983377,173.904,-1.7906256000082976,6
10.145673055195164,-19.7501673809515,-39.08959389519689,51.785161236795055,-26.635906917171752,10.389990361568424,13.15484353976151,173.908,-1.786625600008307,6
12.200787583037316,-27.82933378242763,-36.16616287577364,54.77944286511952,-35.58115032824572,14.74368035586345,17.852736182426725,173.912,-1.7826256000082878,6
11.003991652589253,-26.181900346390375,-35.28205947266378,54.612538539271576,-34.97382686284792,14.27101873108129,16.55023775895998,173.916,-1.7786256000082972,6
7.538334147362184,-16.680303841827726,-36.50786922288905,51.61463624682052,-26.18959378683805,9.805305934511988,10.419490522860162,173.92,-1.7746256000083065,6
4.434314140235738,-7.216048105189632,-37.98792108333887,48.26164407672191,-16.957964309636928,5.302386833204107,4.163588448003684,173.924,-1.7706256000082874,6
3.888668268655806,-4.940393847333657,-37.830996175944925,47.00536566901639,-14.712901090482232,4.462635774792026,2.1276214012966164,173.928,-1.7666256000082967,6
6.118395110928923,-10.808460914603057,-35.748495234256225,48.33658964719887,-20.84265609141195,7.901657548523127,5.042969933620332,173.932,-1.762625600008306,6
9.455493733700044,-19.648454875501972,-33.09385310064311,50.65120276942938,-30.337660476077055,13.045905630250655,9.92736631884204,173.936,-1.758625600008287,6
11.760880284722191,-24.90718794109904,-31.534431303519874,51.80594522898583,-36.39323040135333,16.450659217379275,12.817364914884958,173.94,-1.7546256000082963,6
11.886499501962549,-23.55366176759934,-31.726813906558586,50.85275419112633,-35.58519682588984,16.349741776797707,11.776677030161181,173.944,-1.7506256000083056,6
10.142928487189844,-17.306459197904893,-33.11596926585859,48.514445471958474,-29.512978849790475,13.456912874490135,7.821120479915516,173.948,-1.7466256000082865,6
7.7214206796423746,-10.117061907113277,-34.77348570711851,46.258126242480365,-22.42476662139642,9.828598999919366,3.50716831358612,173.952,-1.7426256000082958,6
5.792029635895107,-4.895736545487242,-36.27492717635983,45.02919015324301,-17.654661729116196,7.164577078702451,0.8395285831227021,173.956,-1.7386256000083051,6
4.975004320105523,-2.2760126463880077,-37.79062614195686,44.77210443456412,-15.929358998197012,5.98094726372583,0.267941768146428,173.96,-1.734625600008286,6
5.319687920942489,-1.6241161203377958,-39.49467698807966,44.91658607356775,-16.189817224188218,5.932785337439364,1.1395510006560974,173.964,-1.7306256000082954,6
6.4929176642261375,-2.4113871262133157,-41.07735035371872,45.09427287583444,-17.253780769327097,6.513567687361082,2.6417600218374795,173.968,-1.7266256000083047,6
7.925785867218463,-4.363108623171113,-41.93873701029693,45.32772588784733,-18.512155892748194,7.345071885845428,4.215417885305029,173.972,-1.7226256000082856,6
8.955365183208125,-6.68091289551686,-41.84957396030155,45.66913958689708,-19.49494010941016,8.027350302274,5.373571892849367,173.976,-1.718625600008295,6
9.089876303872755,-7.823338127448358,-41.34304186723338,45.89016665827473,-19.484120213960228,8.0697609506708,5.600696295823691,173.98,-1.7146256000083042,6
8.316117597175996,-6.573353634225701,-41.3668874837794,45.68371022802177,-18.0081421333565,7.204538652214412,4.744016773949421,173.984,-1.7106256000082851,6
7.1656759369596985,-3.41299666395091,-42.47762306350578,45.153284589947376,-15.67166612802074,5.767554708026899,3.4757706205434706,173.988,-1.7066256000082944,6
6.378417993946999,-0.569119952772921,-44.32849467155162,44.9410025389004,-14.103101979461666,4.607860300629832,3.0734357703089863,173.992,-1.7026256000083038,6
6.37652931724923,-0.3100013563409899,-45.932576087582106,45.686781273065044,-14.68169618660349,4.451469773196238,4.409493267016089,173.996,-1.6986256000082847,6
6.993380203074731,-2.9301948515151097,-46.456153617871315,47.276633170646875,-17.167406068613705,5.282000528656825,7.001740635621719,174.0,-1.694625600008294,6
7.706990688792898,-6.385609157192683,-45.82802126722768,48.691768554210014,-19.719714049516288,6.377901709202061,9.156683521731702,174.004,-1.6906256000083033,6
8.165215579873005,-8.077243064360607,-44.67071917550154,48.768764565183226,-20.518157558345685,7.023263696190509,9.30887595696111,174.008,-1.6866256000082842,6
8.508882808151679,-7.202388118595129,-43.719348543347664,47.267903542090906,-19.523165118180597,7.208088062170092,7.460027367710748,174.012,-1.6826256000082935,6
9.185157576762688,-5.452912916163961,-43.33276270792921,45.24036337787751,-18.601096037884517,7.595555626140112,5.3656950811973925,174.016,-1.6786256000083029,6
10.427256902105304,-5.34146653585413,-43.51135874361965,44.253625907551395,-19.732420370598327,8.743629507705528,5.1607333327098885,174.02,-1.6746256000082838,6
11.901048560326348,-7.699168871925029,-44.24910050290392,45.091599964195005,-22.93578433664685,10.344280017106158,7.547125169848293,174.024,-1.670625600008293,6
12.88031936834365,-10.749093780591377,-45.691659980304586,47.085275801987535,-25.96880209558649,11.300632504043007,11.143328182108286,174.028,-1.6666256000083024,6
12.838795259670665,-11.740947197392943,-47.828129391871755,48.70026828359941,-26.281393022145263,10.69376224025596,13.617643827883951,174.032,-1.6626256000082833,6
11.963969032586817,-9.708854646417347,-50.04668402503448,48.870993549977534,-23.529404092093255,8.798621986125704,13.651358194855057,174.036,-1.6586256000082926,6
11.138429519423184,-6.754244484548771,-51.177585320473135,47.88590572347065,-20.275955133802732,7.153789289040377,12.029660406890441,174.04,-1.654625600008302,6
11.358882791481724,-6.50409843466229,-50.24752176366682,47.043403557021904,-20.049381468577373,7.474707068017009,10.92400825038585,174.044,-1.6506256000082828,6
13.017664380097225,-10.972803939988747,-47.40447458278374,47.42897382910971,-24.341611584571474,10.252544511934257,12.019707386202787,174.048,-1.6466256000082922,6
15.593235601282215,-18.608686171799185,-44.113399904447576,48.95214329567226,-31.19612792913294,14.244084026741827,15.128751081683415,174.052,-1.6426256000083015,6
17.99478656326521,-25.358409395605563,-42.23250874098353,50.50052268072577,-36.712817482582544,17.359963616273724,18.448462758906917,174.056,-1.6386256000082824,6
19.315281264696704,-27.923466761862702,-42.59096392389529,51.00596449797481,-38.226804618469934,18.27022541321808,20.14976412833834,174.06,-1.6346256000082917,6
19.43798427970401,-26.398031467361594,-44.269137904020425,50.38953205157051,-36.410297748174045,17.401334831381146,19.848615956900392,174.064,-1.630625600008301,6
19.049374767124434,-23.989308725037795,-45.30105398492484,49.52294177099079,-34.4817730849223,16.48573183096126,18.714087425808465,174.068,-1.626625600008282,6
19.063447021788313,-24.10656381558503,-44.3057211608842,49.31348233731796,-35.26680832811449,17.050432379835577,18.25173156564187,174.072,-1.6226256000082913,6
19.919122784104363,-27.440593453552918,-41.67953701375806,49.839242664116966,-38.74619642655516,19.141260132241065,18.966701313403743,174.076,-1.6186256000083006,6
21.311017103859527,-31.62129566522112,-39.28994037371538,50.361621696914675,-42.25306133419644,21.373090811825122,20.118567760533626,174.08,-1.6146256000082815,6
22.554901034578755,-33.66510555929026,-38.894757511831784,50.156221865852984,-43.07544075846762,22.238063972799793,20.686116956358134,174.084,-1.6106256000082908,6
23.248454965415224,-32.87612563113335,-40.645104686165254,49.30902675425269,-41.05436264588141,21.497781537280815,20.52032970623127,174.088,-1.6066256000083001,6
23.622221324827727,-31.476187897620086,-42.97716770388787,48.67988041319421,-38.784620578143844,20.40634511598792,20.529529325641942,174.092,-1.602625600008281,6
24.24181545966313,-32.363729671980316,-43.98278044702134,49.06042460425052,-39.20134928203195,20.542334950173274,21.70328438694668,174.096,-1.5986256000082903,6
25.321088496477888,-36.08855553587351,-43.053404862909346,50.339887278782975,-42.71459010722513,22.274567231321956,23.92100749942515,174.1,-1.5946256000082997,6
26.310095526079305,-39.91474813938739,-41.37134674514013,51.495121700082876,-46.51408836873196,24.25074709780109,25.744218929296206,174.104,-1.5906256000082806,6
26.230553507838525,-40.000550136981936,-40.851071461360725,51.45777986916838,-46.80061004230496,24.442168669454027,25.52172959418668,174.108,-1.58662560000829,6
24.56158374055733,-34.907468548579594,-42.47085854671673,50.106214402551,-42.14235581859243,21.925841763283444,22.92704300749697,174.112,-1.5826256000082992,6
21.911959586174362,-27.378324117502775,-45.40822643787206,48.51113874194262,-35.11662557976945,17.900505610425025,19.579572196602278,174.116,-1.5786256000082801,6
19.79949871526515,-22.715639573320306,-47.65028671395453,48.205135309262864,-30.75159549315355,15.013465298104236,18.099422457796138,174.12,-1.5746256000082894,6
19.58768710539574,-24.924746753227133,-47.51357723342668,50.052705605986425,-32.87599553053969,15.447026557620289,20.226900248191043,174.124,-1.5706256000082988,6
21.39700821002709,-33.638016083136506,-44.847227194652234,53.58795272887579,-41.17507494800193,19.240243774525098,25.435113512362697,174.128,-1.566625600008308,6
23.917590006396445,-44.20619067193722,-41.072333892464684,57.28086254868215,-51.21094491957354,24.16322647214251,31.127790456754344,174.132,-1.562625600008289,6
25.34906217570441,-50.8468764265259,-38.17495735603238,59.48889675516326,-57.39220917916812,27.255857545059193,34.32022648579953,174.136,-1.5586256000082983,6
24.751129918661665,-50.45485248159173,-37.475159910597554,59.411042661548144,-56.68843835521934,26.866340651393017,33.5899375158058,174.14,-1.5546256000083076,6
22.71839546564253,-44.3471332232317,-38.97244821183534,57.44798874307018,-50.423983512185174,23.678561017965773,29.898619720573734,174.144,-1.5506256000082885,6
20.837313221380093,-36.917208786508134,-41.52162604443569,54.824956179186024,-43.00200363903412,20.035696213199643,25.7428728562122,174.148,-1.5466256000082979,6
20.39159038426961,-32.44924072789697,-43.55443640620063,52.795282723309356,-38.67663170265644,18.171089246304348,23.32234648287073,174.152,-1.5426256000083072,6
21.392866415354163,-32.47943256649962,-43.87184978119031,51.944393633527696,-38.809062558254276,18.72429825710881,23.09878659995355,174.156,-1.538625600008288,6
22.70545964585878,-35.4044560662854,-42.14826288769856,51.99249778799036,-41.499028189686975,20.592321125229986,23.76146858459179,174.16,-1.5346256000082974,6
23.085915312754235,-38.230629975061056,-38.997353987391,52.15481555811198,-43.574737998887265,22.058879896088776,23.503111194384342,174.164,-1.5306256000083067,6
22.19947600211234,-38.85245272594818,-35.628072049813284,51.757569291660104,-43.14772442691949,22.165312673400685,21.50589123550783,174.168,-1.5266256000082876,6
20.754047991561723,-37.10300925308475,-33.27136817873685,50.64833812786899,-40.65811950079864,21.202461422148165,18.427649391041367,174.172,-1.522625600008297,6
19.708657575400366,-34.012943327949664,-32.66696931895802,49.11341683050015,-37.735501487255476,20.036158897716437,15.557180830546201,174.176,-1.5186256000083063,6
19.32620958093455,-30.23620924038097,-33.86994112344748,47.42995436027306,-35.113268027074206,19.002471674635384,13.460782775059652,174.18,-1.5146256000082872,6
18.93597044501082,-25.22389644461059,-36.42518729489572,45.513252129947155,-31.64181840056533,17.450587170596762,11.391092394516885,174.184,-1.5106256000082965,6
17.594569997179637,-17.958303467919315,-39.70181055126142,43.04876447604166,-25.421414485763837,14.38619142789326,8.052002603830005,174.188,-1.5066256000083058,6
15.017325942452839,-8.55468513825526,-43.11073250269138,40.028694692025184,-16.072570520269526,9.629793362560767,3.062174164177351,174.192,-1.5026256000082867,6
11.927805275614977,0.8832308978605844,-46.123462154256,37.15255742206699,-5.965001842072491,4.380598026815097,-2.255727626029156,174.196,-1.498625600008296,6
9.519311647653362,7.224989487214818,-48.26483233237393,35.57682488625939,0.9990399735599976,0.5588057572221693,-5.614139419535806,174.2,-1.4946256000083054,6
8.51944249441291,8.541598327006628,-49.2762405377234,36.07171301570962,2.280894132836867,-0.612712044367592,-5.524695387875019,174.204,-1.4906256000082863,6
8.676940067549314,5.766121919163481,-49.38689343067288,38.268280410937265,-1.1332161129623683,0.40219259219420633,-2.5934254462089994,174.208,-1.4866256000082956,6
9.079980848709166,2.240023086509948,-49.3724149784077,40.72725690488159,-5.276920204046991,1.7748698666365466,0.8272044757174355,174.212,-1.482625600008305,6
8.97059813982602,1.3304635655383288,-50.159159388306534,41.89901212565757,-6.1632655898502895,1.7229982127868182,2.3993529343480953,174.216,-1.4786256000082858,6
8.320424994395646,3.998388171612279,-52.15011069564593,41.23378026176786,-2.754626407832464,-0.14833795687828508,1.5004816325809134,174.22,-1.4746256000082951,6
7.70756147959159,8.307121862859914,-54.8104536244961,39.510765569203144,2.508850000785277,-2.6716151544548716,-0.5522301334889296,174.224,-1.4706256000083044,6
7.687701793117907,11.222351862596176,-56.94331042499546,38.10969082881921,5.972255360874374,-4.195602516411678,-1.8530869040005116,174.228,-1.4666256000082853,6
8.272873366540107,11.105175836948039,-57.526262263949704,37.87219569954741,5.790434071924641,-3.9499644935801768,-1.5644522174303084,174.232,-1.4626256000082947,6
8.96442460432027,8.791036937270878,-56.458791919677815,38.53722047798509,3.1498148231787817,-2.5507459901795344,-0.4329589328976464,174.236,-1.458625600008304,6
9.237889658189665,6.5123145951370764,-54.60325062827835,39.17259358522894,0.8558497803742169,-1.322168219695329,0.14677122904380016,174.24,-1.454625600008285,6
8.978399473235624,5.867270958299346,-53.101715054440156,39.10602160771064,0.8083044738442541,-1.1540884437033732,-0.5041930149463238,174.244,-1.4506256000082942,6
8.466252573372916,6.760990007553711,-52.579413781678184,38.45525438571911,2.7094155098427604,-1.942016723809217,-1.8704819710010716,174.248,-1.4466256000083035,6
7.977188989604481,8.135271021410231,-52.90936976921349,37.82482376512278,4.983093520538036,-3.0188245567115857,-2.992182970750436,174.252,-1.4426256000082844,6
7.433243425474031,9.496069697058434,-53.64668452323903,37.5815665957107,6.715872437665882,-4.022577213282921,-3.557490419387081,174.256,-1.4386256000082938,6
6.479768421755852,11.5008651163358,-54.59038947886357,37.50339145291291,8.531413773257281,-5.260823555666309,-4.164225729731943,174.26,-1.434625600008303,6
4.948745319795926,14.884904058763244,-55.83654029510166,37.16142694273745,11.476635138460072,-7.166194195386574,-5.468976969268415,174.264,-1.430625600008284,6
3.2870895666577784,18.77843490070972,-57.25339640231492,36.60693239635902,15.059268806815197,-9.372204978457471,-7.1061242897693075,174.268,-1.4266256000082933,6
2.5184537067925685,20.264110732865497,-57.98367492086199,36.5915388461021,16.54838649558036,-10.391438101208454,-7.547376759270045,174.272,-1.4226256000083026,6
3.6707245961150727,16.030003643114497,-56.66736085377406,37.996053210355065,12.59055576805549,-8.411961511942769,-5.208014851923272,174.276,-1.4186256000082835,6
7.036199214023317,5.046304412588707,-52.43077463286715,40.941311223448665,2.047017292338236,-2.729641302233306,0.08958379270154561,174.28,-1.4146256000082928,6
11.797561314636464,-9.93043558869512,-45.87780967553163,44.42532618734055,-12.339056272453101,5.327940677562057,6.5964733571407725,174.284,-1.4106256000083022,6
16.33156239607272,-23.491239490162513,-39.13427078683563,46.906764084497155,-25.085465533291178,12.857133814755677,11.61551551496377,174.288,-1.406625600008283,6
19.05422996677401,-30.77610752829509,-34.6919488990082,47.41687445104855,-31.34366010371593,17.052686294648133,13.287925818548512,174.292,-1.4026256000082924,6
19.29929408263459,-30.490149855839217,-33.8204313747703,46.28984052723159,-30.0621082220063,16.959421218911046,11.824133623838593,174.296,-1.3986256000083017,6
17.67032191155174,-25.527326564708527,-35.76314546461211,44.894578101564676,-24.544957260437315,14.02202185427884,9.248507422362708,174.3,-1.3946256000082826,6
15.622387750780968,-20.750619043507786,-38.371144818835134,44.571697074352535,-19.953852606480893,11.003439095127542,7.878092548562766,174.304,-1.390625600008292,6
14.527572225662977,-19.58489817236316,-39.69110411889898,45.62603063664416,-19.623782042807107,10.050471522341512,8.695709949420596,174.308,-1.3866256000083013,6
14.838782087010749,-21.922319577441453,-39.26514021424972,47.165897254359656,-22.94737262259681,11.324686914522164,10.805466158395431,174.312,-1.3826256000082822,6
15.920057778927754,-24.788106743739583,-38.16256666760027,47.884741513901545,-26.33536605878185,13.178656029732464,12.302584147559937,174.316,-1.3786256000082915,6
16.647817885013783,-25.085907373358975,-37.82083009351519,47.13051900798647,-26.35986777520453,13.662990939583729,11.82527740949472,174.32,-1.3746256000083008,6
16.316010382560822,-22.180389204395425,-38.72743662418275,45.405473759906656,-22.522252566354634,12.128657749178053,9.579936503287271,174.324,-1.3706256000082817,6
15.140789380103456,-18.29221729273516,-40.03565481572693,43.927066969689484,-17.47961517052005,9.657368847191547,7.082262081997646,174.328,-1.366625600008291,6
13.980388873298178,-16.502447107878975,-40.36177835449008,43.64875441998937,-14.691037964955997,8.04295640336898,5.883163730668536,174.332,-1.3626256000083004,6
13.535676769502945,-18.121804885234322,-39.011553906673406,44.56012703000119,-15.5594845649965,8.24653928795778,6.350500269442302,174.336,-1.3586256000082813,6
13.737017177780395,-21.66159754929342,-36.57504821218896,45.82221358753249,-18.483569682624303,9.6526468711643,7.508337807629505,174.34,-1.3546256000082906,6
13.854104825152566,-24.228295180078533,-34.43150015786793,46.572249769183585,-20.51216169577442,10.718090781579397,8.027511657805345,174.344,-1.3506256000083,6
13.211954215590266,-24.047767845893123,-33.65446675487017,46.66620610054059,-20.008741745804684,10.371694516315973,7.4611215141211344,174.348,-1.3466256000082808,6
11.837787756636324,-21.85107360051135,-34.27663690254153,46.705312907647475,-17.89690080800499,8.881110393215707,6.600400253558397,174.352,-1.3426256000082901,6
10.423815356589165,-19.907461225102097,-35.49300502393675,47.350517876853566,-16.422628574844754,7.426828908787891,6.621932681653002,174.356,-1.3386256000082994,6
9.635004168512145,-19.65355121123516,-36.527873336686255,48.58286888618966,-16.694651538525168,6.835340595596068,7.822862436148731,174.36,-1.3346256000082803,6
9.425464668880824,-20.18009950074965,-37.327664205860415,49.621829506501946,-17.408449190993437,6.708284338139298,9.160634384081439,174.364,-1.3306256000082897,6
9.041721371204096,-19.06496911848028,-38.44348927586785,49.605017133859455,-16.04232623987361,5.808832855631506,9.095213273526694,174.368,-1.326625600008299,6
7.748969111239144,-14.852715136827397,-40.23034976137011,48.414725584646604,-11.457380814802894,3.3709720221528947,7.0057789949617915,174.372,-1.32262560000828,6
5.614323033969795,-8.887070499409212,-42.13153820410364,46.88015887764512,-5.444424866501847,0.09606977856489791,3.8724818798349077,174.376,-1.3186256000082892,6
3.5947113849883423,-4.705666946031989,-42.7753485461201,46.14686314898231,-1.6666617790582294,-2.1524620828564727,1.5585648200961582,174.38,-1.3146256000082985,6
2.8077624279934947,-5.382190858077193,-40.91877966636424,46.76602267268027,-2.824523155566198,-1.765175688007176,1.31688426734107,174.384,-1.3106256000083079,6
3.625763571955949,-11.06842695900703,-36.516951797552025,48.304076568816456,-8.50849118477102,1.3041630194910248,2.8598667810666694,174.388,-1.3066256000082888,6
5.403882792019324,-18.84337969552548,-31.021889617115615,49.78368413711924,-15.592396010739982,5.478009902029885,4.79208849221266,174.392,-1.302625600008298,6
7.069463778593707,-24.966994847082745,-26.58501904771618,50.51595937028238,-20.75030219765337,8.782752613140458,5.934140330435776,174.396,-1.2986256000083074,6
8.012238178856421,-27.594744326160132,-24.704020761969684,50.5775230406852,-22.864347087937173,10.289514222607044,6.283836733918342,174.4,-1.2946256000082883,6
8.465985707478872,-27.734714532989205,-25.315489334621045,50.577359422529966,-23.343619924326397,10.56505079551242,6.785427866415387,174.404,-1.2906256000082976,6
9.080844972705863,-27.861343490417106,-27.007419939263883,51.02720029549951,-24.34359849884591,10.859275344914176,8.245041315407375,174.408,-1.286625600008307,6
10.151743671525258,-29.590354078211988,-28.160033303908452,51.926893876615466,-26.675225155092708,11.859291562264064,10.48768342680839,174.412,-1.2826256000082878,6
11.263721789240204,-32.429541833070886,-28.110165587063868,52.87179952632587,-29.238202253453842,13.130766036655688,12.511622321366849,174.416,-1.2786256000082972,6
11.680668170772766,-34.474948194427306,-27.448365774460708,53.455930647727264,-30.24768017115355,13.653768756947306,13.380626564594245,174.42,-1.2746256000083065,6
11.080744455324806,-34.20306598960937,-27.285478643893597,53.53208749098453,-28.927866721374357,12.859941996949104,12.943637411618889,174.424,-1.2706256000082874,6
9.924604665759688,-31.743715939618586,-28.164262158175738,53.15369897812349,-26.143275120362894,11.201243113993772,11.7717064602803,174.428,-1.2666256000082967,6
9.112359360872178,-28.706713452195235,-29.545006903155883,52.408840568850195,-23.61299008394426,9.797220690179849,10.54628981939319,174.432,-1.262625600008306,6
9.26160246684267,-26.964547070003935,-30.259766288499343,51.42632313070767,-22.644341317338423,9.565329243594281,9.615399834697081,174.436,-1.258625600008287,6
10.271903433376666,-27.53871228748501,-29.481255878901017,50.54424895695013,-23.548067194697055,10.639397945977604,9.112485024778701,174.44,-1.2546256000082963,6
11.53805383710695,-30.384483933870815,-27.33439960549318,50.35365747606149,-26.03020058577323,12.52063214793915,9.33674066402965,174.444,-1.2506256000083056,6
12.555597028399237,-34.934278619456215,-24.650322141406214,51.41193885620155,-29.881989789136025,14.693180068238394,10.805874597159269,174.448,-1.2466256000082865,6
13.324911100960435,-40.66056638051685,-22.170196240257386,53.791207492875735,-35.139105560348234,17.052794794125102,13.800954793161207,174.452,-1.2426256000082958,6
14.201062044731573,-47.1113865100421,-19.997425133229502,56.874920441963184,-41.573920319756475,19.756278576107324,17.850470900225993,174.456,-1.2386256000083051,6
15.391831078186497,-53.53759184384366,-17.81390540703745,59.646248542835174,-48.14206609015309,22.704006922304817,21.75147679770771,174.46,-1.234625600008286,6
16.63319958381308,-58.688620789261385,-15.593108335248733,61.27334720835707,-53.090699549019526,25.233963945693944,24.23191793566555,174.464,-1.2306256000082954,6
17.373930913616178,-61.19952073925631,-14.018759163168212,61.528748573061705,-54.824649970839246,26.40740254961826,24.732847836967643,174.468,-1.2266256000083047,6
17.291968006374127,-60.40796589961995,-14.079278015166617,60.748820123765334,-52.92532916593461,25.70480438371397,23.666980566867757,174.472,-1.2226256000082856,6
16.63972469893103,-56.96842384479462,-16.129238858850886,59.46385583822281,-48.54178794527579,23.54199136904236,21.99387874272512,174.476,-1.218625600008295,6
16.073985553498545,-52.69133936786381,-19.303585058179205,58.081980838321314,-43.8281743094644,21.124577513588065,20.5425548300995,174.48,-1.2146256000083042,6
16.107564039749416,-49.59324904874075,-21.935007774408152,56.86276820303303,-40.780914844434776,19.692316228111103,19.646523196690143,174.484,-1.2106256000082851,6
16.671580241704312,-48.75993032642126,-22.73365649218293,56.06226896579296,-40.21903491992261,19.711653526903333,19.26711900412621,174.488,-1.2066256000082944,6
17.18196399178474,-49.80925878409951,-21.75621657651661,55.95928321109381,-41.51989298534993,20.632779414643014,19.311341728444486,174.492,-1.2026256000083038,6
17.05857079572598,-51.333516732067935,-20.315590130781935,56.65354806047729,-43.21487204221097,21.390687009127376,19.761173039730213,174.496,-1.1986256000082847,6
16.253211129435176,-51.99792237728802,-19.8791909585364,57.844500977817376,-44.018563853350926,21.25450035482473,20.543464727098073,174.5,-1.194625600008294,6
15.340973820503159,-51.501797775046235,-20.87322480848805,58.89375278138743,-43.63039879328324,20.37449663661557,21.396198138311398,174.504,-1.1906256000083033,6
15.100309867363084,-50.72583353137678,-22.37643414931063,59.22379620908219,-42.82758392949136,19.631375727891527,21.974369805841995,174.508,-1.1866256000082842,6
15.920265255798762,-50.99628676592979,-22.909250136739775,58.75342066962956,-42.83223422429337,19.93573304180984,22.128352159724788,174.512,-1.1826256000082935,6
17.489175309481258,-53.02825342444583,-21.61524125159225,57.978070378051584,-44.3893934324379,21.5216001754673,22.044042245475858,174.516,-1.1786256000083029,6
18.975053991761815,-56.304728325076915,-18.879139196444505,57.585599624403294,-47.15625735346924,23.73760409351307,22.041867165312482,174.52,-1.1746256000082838,6
19.536923048291673,-59.30515312968475,-15.983057422266269,57.90711278170054,-49.79068454740348,25.440037999084947,22.194821270277338,174.524,-1.170625600008293,6
18.806829522020454,-60.412668526983026,-14.203687426441064,58.662475821783744,-50.69420470810165,25.677014373031152,22.164240944690384,174.528,-1.1666256000083024,6
17.066008347238874,-58.919549445761504,-14.093136663994882,59.218063260603,-48.98415197899421,24.221087851359105,21.49167862954962,174.532,-1.1626256000082833,6
15.07641827273255,-55.531784965378804,-15.367953651789557,59.13843951549971,-45.139997625118674,21.68258302652528,20.142295427529504,174.536,-1.1586256000082926,6
13.712305343417388,-52.07712156711801,-17.269567312542442,58.56326146569746,-40.924045379540196,19.20899351999537,18.786173930090474,174.54,-1.154625600008302,6
13.572173319986153,-50.53792909537601,-18.99677237702239,58.08997129828927,-38.528856454145725,17.945150600101034,18.456262708167674,174.544,-1.1506256000082828,6
14.703286617199758,-51.884340842377135,-19.980507834837585,58.26126489529492,-39.32288871314304,18.470691474695627,19.75249440316745,174.548,-1.1466256000082922,6
16.534681980718904,-55.35134940099861,-20.046538592929956,59.08719937122085,-42.88093553471806,20.438171400839117,22.218770775867767,174.552,-1.1426256000083015,6
18.089632572928185,-58.67137192359214,-19.53816604627627,59.99966740804519,-46.980091351214504,22.63031750142898,24.470011838680573,174.556,-1.1386256000082824,6
18.454705047342994,-59.29188254884341,-19.276255812591977,60.275626969580344,-48.771267837325475,23.534302636351995,25.074771545485536,174.56,-1.1346256000082917,6
17.303636278295333,-55.955343438644285,-20.164983237724236,59.58320457876754,-46.55556468019142,22.228868182217248,23.560182317279832,174.564,-1.130625600008301,6
15.143886916061176,-49.631376467941884,-22.52636141939578,58.218740164245034,-41.018999740050326,19.058974278949297,20.7551362681325,174.568,-1.126625600008282,6
13.05273354549683,-43.07574677356089,-25.63688930519704,56.87260171250711,-34.9630041472492,15.559744683486729,18.19056028451648,174.572,-1.1226256000082913,6
12.011168077327717,-39.196127965515736,-27.974091704124685,56.14502000775143,-31.564608950144347,13.547003913857553,17.031636620848108,174.576,-1.1186256000083006,6
12.283963626643098,-39.30488410556073,-28.175855554987766,56.2034015148029,-32.332547156243756,13.943057980309293,17.38286369503698,174.58,-1.1146256000082815,6
13.313114321376197,-42.47728988793503,-26.05754446475708,56.80453499459839,-36.24183382547046,16.196103177564453,18.46291568462354,174.584,-1.1106256000082908,6
14.209526941052072,-46.41393812623742,-22.85761153299324,57.57699245602081,-40.658405825145756,18.746230856278228,19.397205231025293,174.588,-1.1066256000083001,6
14.437507859086281,-49.06193131007498,-20.441687837080394,58.275423200272655,-43.26462567863409,20.165892584722737,19.889421181707796,174.592,-1.102625600008281,6
14.125405822467028,-49.74028207083717,-20.045779714266466,58.82214151806875,-43.45504699324443,20.063763389537655,20.22979804827463,174.596,-1.0986256000082903,6
13.772971703280916,-49.05543111680196,-21.526121908917172,59.199653373850396,-42.232319173819775,19.08118758583927,20.760059536568345,174.6,-1.0946256000082997,6
13.669521096298634,-47.95432358125358,-23.65164633328918,59.382591285910834,-40.96077985852313,18.116140222244194,21.398497168612273,174.604,-1.0906256000082806,6
13.584139489007491,-46.87562614066319,-25.11560649759206,59.38783895111147,-40.20932147073514,17.538933496667898,21.689642172203563,174.608,-1.08662560000829,6
13.006990174819828,-45.643878562343595,-25.417243065718147,59.331868613183104,-39.60029262337081,17.05736123016472,21.265194233264943,174.612,-1.0826256000082992,6
11.684875640860621,-43.94410962596902,-24.98773153042558,59.35547334950425,-38.51631343246281,16.20986973373031,20.197935864762258,174.616,-1.0786256000082801,6
9.926314958594725,-41.7614692960247,-24.624061579427654,59.4548246910682,-36.807157405614724,14.910555163608931,18.900993467795253,174.62,-1.0746256000082894,6
8.40143528162757,-39.43103893646318,-24.80224775398754,59.42952340580786,-34.89583403512948,13.547203971356469,17.75095806678833,174.624,-1.0706256000082988,6
7.658314818447028,-37.4683524703887,-25.38961947501122,59.08304139599118,-33.4439841515135,12.664586599653877,16.89601328282136,174.628,-1.066625600008308,6
7.812637646756598,-36.474652617868756,-25.847377000978053,58.52063656103955,-33.078694456436196,12.634068525664851,16.433381341822038,174.632,-1.062625600008289,6
8.627636449161383,-37.05612984537683,-25.66086643585107,58.198890884131615,-34.307887825608354,13.56547376225768,16.632883011285596,174.636,-1.0586256000082983,6
9.781581441914009,-39.45566276374127,-24.69419183995385,58.5598508474814,-37.296401756106285,15.335583677508572,17.769240392897455,174.64,-1.0546256000083076,6
10.990015405000335,-42.95200390470288,-23.313016295206157,59.52086470117731,-41.36995771888643,17.518093429613124,19.606004383004695,174.644,-1.0506256000082885,6
11.928712671113908,-45.695072169338545,-22.237573878879523,60.34523740047738,-44.790711471995536,19.31189653871565,21.137510909906688,174.648,-1.0466256000082979,6
12.225790618247876,-45.63185871883257,-22.154383845803103,60.152100471403394,-45.533277898742554,19.8121420237765,21.12948734995047,174.652,-1.0426256000083072,6
11.731133709601838,-42.19317819108027,-23.244482696008603,58.70955760363566,-42.90765528577579,18.691817931856338,19.212806927770817,174.656,-1.038625600008288,6
10.858509684847258,-37.309694095379015,-24.951123661507577,56.78148039241649,-38.667417857414954,16.756172638276663,16.532072898761157,174.66,-1.0346256000082974,6
10.52902962229704,-34.44364187700118,-26.273198858008485,55.60543105889019,-36.178153517905116,15.64287854695764,15.117655024769926,174.664,-1.0306256000083067,6
11.534374784135702,-35.968293411998104,-26.488333528393984,55.86557621474394,-37.82454510499654,16.60906464131903,16.27215640518996,174.668,-1.0266256000082876,6
13.779978644320114,-41.017820207307395,-25.744164622598227,57.06437368762979,-42.76719342580798,19.35295296179954,19.331872961964166,174.672,-1.022625600008297,6
16.17276301532716,-45.95248766990645,-24.923001782036643,57.919728186802004,-47.335146925193925,22.071690437158495,22.046454737849395,174.676,-1.0186256000083063,6
17.43750441023488,-47.414979616383675,-24.78265999142553,57.50339781970767,-48.14751417558309,22.96219359771602,22.44205795573372,174.68,-1.0146256000082872,6
17.239435300712245,-45.42030287338312,-25.127520780054265,56.11921520506203,-45.346294371497684,21.93330634386555,20.60216117529525,174.684,-1.0106256000082965,6
16.5605172293844,-43.54643972527192,-24.88167167697068,55.10067619249187,-42.82384432124092,20.870307922083462,18.720454379523794,174.688,-1.0066256000083058,6
16.860679658603605,-45.75313478971951,-23.15210948963044,55.6669671728191,-44.87591065581473,21.995916809324104,19.257591294417885,174.692,-1.0026256000082867,6
18.69527282774762,-52.54352382412703,-20.347467106313733,57.842328124532585,-52.115289445913696,25.699077449294983,22.769601974779285,174.696,-0.998625600008296,6
21.064533549426802,-60.0408275338886,-18.1957244652172,60.40326110138836,-60.44962948552234,29.876381431043182,27.342005402769793,174.7,-0.9946256000083054,6
22.181841036910914,-63.06129146507439,-18.435796040988887,61.89780973789188,-64.31031188886354,31.563050409236038,30.164698210888,174.704,-0.9906256000082863,6
21.04959677599183,-59.60856938680273,-21.24178974095746,61.83065795143208,-61.42261826904708,29.514188167420336,29.87853450196302,174.708,-0.9866256000082956,6
18.44118893210638,-52.81152082920743,-24.8231949629633,60.99379036294672,-54.893130485110134,25.434113284636513,27.65875369759126,174.712,-0.9826256000083049,6
16.38124250848199,-48.550047129160276,-26.671928690648286,60.71649745473173,-50.74156811266947,22.707967485132254,26.157836484132087,174.716,-0.9786256000082858,6
16.555624841717563,-50.82408235429805,-25.455137274786686,61.747772810424394,-53.048389787523675,23.715890098121847,27.308321666344618,174.72,-0.9746256000082951,6
19.02307463900845,-58.80955170519977,-21.96313552903425,63.723136385713076,-60.88661119869379,28.03621441284961,30.87687299535671,174.724,-0.9706256000083044,6
22.288089051530445,-67.87682646518215,-18.37314134102862,65.5635295100519,-69.42982164603318,32.97388516367948,34.854285726982134,174.728,-0.9666256000082853,6
24.567575138328042,-73.33379018883609,-16.566160094138258,66.33746164583472,-73.9118058789655,35.77571051591102,37.131008861866064,174.732,-0.9626256000082947,6
25.10113451591408,-73.57191154652465,-16.95522782156109,65.83209391073386,-72.92270166586384,35.56009003393866,36.956522573362975,174.736,-0.958625600008304,6
24.464816133777394,-70.31551102009189,-18.649778976559983,64.48230519295971,-68.61280334311962,33.50285742354711,35.128114589487275,174.74,-0.9546256000082849,6
23.826975415412498,-66.47250899116544,-20.507923231280756,62.90887232310387,-64.32589095981005,31.495878287083784,33.07459715665611,174.744,-0.9506256000082942,6
23.954586606252878,-63.90431721302004,-21.96334854086285,61.54260101066898,-62.116143668593025,30.683840959682318,31.80278084587175,174.748,-0.9466256000083035,6
24.7998330471847,-62.84925925928919,-22.98824861673371,60.55776579103545,-62.034326031488725,31.031513734898702,31.482721334392767,174.752,-0.9426256000082844,6
25.815195706718708,-62.791911358277126,-23.540375861865407,59.98077139262933,-63.06416383079622,31.899838630965583,31.7006453206251,174.756,-0.9386256000082938,6
26.510333408656116,-63.37515240977264,-23.29544253087237,59.75789390499872,-64.29147078631733,32.775157563585786,31.91868084972174,174.76,-0.9346256000083031,6
26.7234704511795,-64.44415549417945,-22.006949653290153,59.75154462952954,-65.26889647411599,33.47230028046742,31.77268626040912,174.764,-0.930625600008284,6
26.508469680814837,-65.56271836794468,-20.0573147601922,59.78304324300207,-65.72084117406797,33.87621626046607,31.173145117921873,174.768,-0.9266256000082933,6
25.90827339262826,-65.8622217576528,-18.5215926646473,59.75776560407797,-65.29961736103161,33.717206104001,30.300186682624474,174.772,-0.9226256000083026,6
24.872758557432444,-64.48654835702665,-18.57079725498028,59.736181230701014,-63.687667106370164,32.655728314418454,29.48034461582522,174.776,-0.9186256000082835,6
23.332474383781488,-61.10940402725878,-20.71324409531238,59.820614576604356,-60.75769301654734,30.513962929337765,28.913289249394914,174.78,-0.9146256000082928,6
21.295905307067073,-55.994157623076156,-24.511255275171177,59.947124969497,-56.53933833649735,27.385686577656895,28.416034380523712,174.784,-0.9106256000083022,6
18.90485455410524,-49.72000678144912,-28.930352569289163,59.838438836825325,-51.195525060806276,23.607232192308086,27.495358828305903,174.788,-0.9066256000082831,6
16.4779398083051,-43.07879750694666,-32.92496088574428,59.240906388558194,-45.2939216720514,19.751483082640124,25.82735078523893,174.792,-0.9026256000082924,6
14.526047156529625,-37.24455904363214,-35.78476826795153,58.237239104553446,-40.132399676398386,16.650248295364353,23.748192431534655,174.796,-0.8986256000083017,6
13.622201583250325,-33.6946419265903,-37.147538801589036,57.273286300867355,-37.447372825541706,15.210148515813737,22.18391715378965,174.8,-0.8946256000082826,6
14.067880333105608,-33.43739403512125,-36.94316673376785,56.78771525199544,-38.265583341937074,15.887816045633013,21.902732480092123,174.804,-0.8906256000082919,6
15.541764096465448,-35.96149232492811,-35.48415728617105,56.768143158975136,-41.70188762163641,18.13518072581451,22.70244925148048,174.808,-0.8866256000083013,6
17.08257703265347,-39.00014356664005,-33.57457799417879,56.70460665620234,-44.993691427888656,20.408563011983535,23.372666287868153,174.812,-0.8826256000082822,6
17.58209585156705,-39.75973210186674,-32.31906983882368,56.060816392493045,-45.21096803723846,21.008777764235102,22.638079969633683,174.816,-0.8786256000082915,6
16.52707608343339,-36.93414592405525,-32.54019334209895,54.85374700127239,-41.50964546957381,19.272225734571368,20.330935916450898,174.82,-0.8746256000083008,6
14.432246879658994,-31.902945229646757,-34.15120056117061,53.77192652387073,-36.04908141756257,16.18065755253087,17.718396252319355,174.824,-0.8706256000082817,6
12.576531498722177,-28.00551795682525,-36.02453022607841,53.67284406577738,-32.650054032941505,13.81375859083299,16.616968060512637,174.828,-0.866625600008291,6
12.185172538421105,-28.330898648473497,-36.60211844930426,54.89407295315208,-34.149671389043654,13.979181696441051,18.02426129880717,174.832,-0.8626256000083004,6
13.633900290787093,-33.65677597313748,-34.92423186556504,56.995341979687986,-40.48782361203041,17.013844567356603,21.42574461290126,174.836,-0.8586256000082813,6
16.219803657190443,-41.969918372915856,-31.37888058150337,59.13213925696683,-48.874017602559334,21.5876537493051,25.283219893516204,174.84,-0.8546256000082906,6
18.607459928557926,-49.70838625227952,-27.608978928894697,60.6677836729699,-55.65548934788496,25.5509417435198,28.14666918401156,174.844,-0.8506256000082999,6
19.60883123741465,-53.70745859304945,-25.572072515790396,61.45799160493174,-58.347513836998075,27.163488333083553,29.396733770407977,174.848,-0.8466256000082808,6
18.817188417231424,-52.66985444417927,-26.330459671134093,61.63977689469592,-56.56900932834962,25.943542484591177,29.168815647144484,174.852,-0.8426256000082901,6
16.78915881131786,-47.60039002087375,-29.3564406919204,61.27900121269744,-51.75896413103753,22.782242283805783,27.865392536010592,174.856,-0.8386256000082994,6
14.735063914297601,-41.25075785688336,-32.82947323689603,60.31880232934954,-46.30262801126919,19.41730403569807,25.911688825703386,174.86,-0.8346256000082803,6
13.874550652229763,-36.82835023808848,-34.77162403038907,58.85376720521436,-42.56758687958163,17.56024743560029,23.878995855014796,174.864,-0.8306256000082897,6
14.743710370123491,-36.339786290904506,-34.309450542695544,57.320687272675784,-41.934370537702925,18.01264160510718,22.506568123396523,174.868,-0.826625600008299,6
16.82100716017213,-39.29008766325189,-32.22810487460373,56.25597979427125,-43.974269261752,20.16292393159548,22.25255091356876,174.872,-0.8226256000082799,6
18.772105602615458,-42.71588116544775,-30.409431549601894,55.78238618428754,-46.37626585961754,22.244484488635038,22.702602299129158,174.876,-0.8186256000082892,6
19.287241804534435,-43.007546771251675,-30.485230673220087,55.38495126834162,-46.19286238815881,22.412311139525585,22.60113562022892,174.88,-0.8146256000082985,6
18.02095538548754,-38.62088657853265,-32.614483961071464,54.33116549305012,-41.997973061453415,20.07986603907527,20.801356683444606,174.884,-0.8106256000083079,6
15.926180942833518,-31.653334825219577,-35.28208781526006,52.43114732161225,-35.38585525165953,16.534321501822298,17.429628125871115,174.888,-0.8066256000082888,6
14.61566965485602,-26.678704670524205,-36.351562299890574,50.395904342999515,-30.253349439908256,14.168341766301893,14.10370064616562,174.892,-0.8026256000082981,6
15.133598140157256,-27.302869124631,-34.69113455143831,49.34501131331679,-29.947308593892856,14.69808246963598,12.764620346852144,174.896,-0.7986256000083074,6
17.076933593920103,-33.02724583562028,-31.185305749829695,49.820481929417085,-34.378130523497745,17.69051052533151,14.002756060279024,174.9,-0.7946256000082883,6
18.82205064884107,-39.15938648503253,-28.28553508320087,51.2027444823493,-39.64142903011561,20.677853064623406,16.38370240253524,174.904,-0.7906256000082976,6
18.748840136962247,-40.20346006599258,-28.29611161700793,52.12628144480648,-40.81966754744667,20.94787059346195,17.496247055216518,174.908,-0.786625600008307,6
16.510881667339877,-34.18162922712976,-31.61007782650653,51.588183791955224,-35.88495545042216,17.67605453711,15.901542507653351,174.912,-0.7826256000082878,6
13.320626049753773,-24.316721404077665,-36.28693997814577,49.77871243449025,-27.453973169167472,12.656394068550254,12.301901998596643,174.916,-0.7786256000082972,6
11.008892258085716,-16.537936241666536,-39.43834564133826,47.88707073569733,-20.777984905988394,8.94827880228649,8.910024992923667,174.92,-0.7746256000083065,6
10.621494266343701,-14.760485390766492,-39.46977512724189,47.05989369218486,-19.515464165961856,8.469386428121634,7.594950297320056,174.924,-0.7706256000082874,6
11.682692333006289,-17.841495064544972,-37.427640305881056,47.4552714498729,-22.794507620753087,10.484503808541248,8.441175399758682,174.928,-0.7666256000082967,6
12.687374373795269,-20.76797459725925,-36.27022068901022,48.22870242619618,-26.05623007188941,12.248997653160831,9.929350905006626,174.932,-0.762625600008306,6
12.378101557849572,-19.073163873731964,-38.49911619877137,48.41669183312803,-24.992103155693798,11.304133275554143,10.465456561665391,174.936,-0.7586256000082869,6
10.758292935800126,-12.740422980502528,-43.99345814986397,47.86655088925229,-19.26515805712252,7.552509417165848,9.821685945270765,174.94,-0.7546256000082963,6
9.053752563811743,-6.291276688328599,-49.85730904527863,47.347634550069955,-12.88497590938366,3.4115776269237372,9.220596902185491,174.944,-0.7506256000083056,6
8.701491429749948,-4.995357173446219,-52.52060137988934,47.76072878635453,-10.927434371134366,1.9148390223993632,10.066333685966102,174.948,-0.7466256000082865,6
10.19981107416676,-10.419095238739445,-50.459845214271745,49.201739960944295,-15.349908620277647,4.30546176012748,12.521836278050328,174.952,-0.7426256000082958,6
12.722119763088275,-19.07141185057232,-45.325145450919855,50.767335791978184,-23.38586564359437,9.072242902981916,15.220724487038202,174.956,-0.7386256000083051,6
14.770133292836649,-25.275922947611505,-40.54261577301558,51.310679568038445,-29.831916449692645,13.192001599452208,16.377640709992434,174.96,-0.734625600008286,6
15.331146831860366,-25.839959469496144,-38.5676011692489,50.48964920480909,-31.303814501004766,14.543803328702312,15.346775774378054,174.964,-0.7306256000082954,6
14.624990939718543,-22.59009999885511,-39.09096112567721,49.167414171380386,-28.91507615155461,13.51492485041756,13.288807314570443,174.968,-0.7266256000083047,6
13.852715376126092,-20.638457929794118,-39.658126776938495,48.76628043025105,-27.140653370533997,12.4909447060067,12.327297564882771,174.972,-0.7226256000082856,6
14.140926963220425,-23.81971840255062,-38.07553609034968,50.06983342565671,-29.78444710105418,13.66413084851212,13.804810356565223,174.976,-0.7186256000082949,6
15.522329164956492,-31.12020216893781,-34.47145843501648,52.459943740186084,-36.395026075957325,16.987954371095327,17.016459403673704,174.98,-0.7146256000083042,6
16.79509986183901,-37.13267943719544,-31.247153090863232,54.255617986011416,-42.175984961294695,20.00573903418318,19.49936060731977,174.984,-0.7106256000082851,6
16.42409892324908,-36.25700361141203,-31.03095318802181,53.945857490128425,-41.6153533019344,19.74924259661844,18.7841110913723,174.988,-0.7066256000082944,6
13.792288533466232,-27.252866885444718,-34.455769254565446,51.37728774285624,-32.97428555869005,15.179344763448412,14.334000658929337,174.992,-0.7026256000083038,6
9.778060981817372,-14.413087282923849,-39.65052559726109,47.955757258861276,-19.966338229773545,8.155178687120161,8.140954182159685,174.996,-0.6986256000082847,6
6.146436518360894,-4.369362375421008,-43.787288738474196,45.66821984584072,-9.168155381951136,2.1053022060623157,3.404847925582423,175.0,-0.694625600008294,6
4.223920332148579,-1.1233248117209482,-45.276029271407175,45.655742407458945,-5.188024557478981,-0.5245913050457643,2.232307206045375,175.004,-0.6906256000083033,6
3.95544297537847,-3.3434892236527096,-44.75498052028096,47.43909728464346,-7.495741694212845,0.04795851428588805,4.1517126638387305,175.008,-0.6866256000082842,6
4.1386079211497995,-6.053718697308248,-44.17481249428059,49.395465039998754,-11.447600426929736,1.4825991548472972,6.659459502522753,175.012,-0.6826256000082935,6
3.6130292838216063,-5.147581053706686,-44.92803883692467,50.0840995689874,-12.508526409958382,1.5275464654117252,7.359470982369045,175.016,-0.6786256000083029,6
2.334508385043305,-0.8160373143096888,-46.69548584411894,49.328330652324745,-9.980544811942556,-0.06368425652813278,5.892913189531297,175.02,-0.6746256000082838,6
1.364748138924406,3.0100648418077722,-47.93501386624793,48.173076544794725,-7.058888653352574,-1.5638678844080398,4.00988087848168,175.024,-0.6706256000082931,6
1.795303273720309,2.5902754693692263,-47.46680224810761,47.80022560746454,-7.341631802932299,-1.13622873848978,3.758858438975651,175.028,-0.6666256000083024,6
3.6076892968658734,-1.8857223506592664,-45.70593675323206,48.3848350920918,-11.086039261440945,1.2286308455012274,5.456543130873424,175.032,-0.6626256000082833,6
5.534355740150111,-6.104106634792689,-44.47311215426119,48.91666634207918,-14.670975497701932,3.4957649997020557,7.3014072048244945,175.036,-0.6586256000082926,6
6.058512631271006,-5.1539289723128725,-45.570841904927434,48.13864172280594,-13.734438229253893,3.281276001915632,6.980778750501653,175.04,-0.6546256000083019,6
4.640668415732443,2.350588033545982,-49.33865557794059,45.74139120247984,-7.070117562425336,-0.09879708111598463,3.774922569723684,175.044,-0.6506256000082828,6
2.074958990816939,13.137391993450578,-54.35773367671785,42.72568049542161,2.270449582565432,-5.068412837745675,-0.7823345477909912,175.048,-0.6466256000082922,6
-0.2800075972769028,21.96991189481972,-58.47021415048691,40.614417516111985,9.556603155978193,-9.144125950348862,-4.246584868797179,175.052,-0.6426256000083015,6
-1.6068656986594945,25.616441510472274,-60.21368044866332,40.244989581087175,12.124924825136066,-10.872843550574844,-5.292966218797835,175.056,-0.6386256000082824,6
-2.04057472649571,24.629186034838643,-59.539929195257415,41.21965951893247,10.879616228501298,-10.59972868922273,-4.548229171296512,175.06,-0.6346256000082917,6
-2.115318219704765,21.749435115640896,-57.41417005375462,42.430655796921776,8.497495158546894,-9.556944267810689,-3.5911535298394552,175.064,-0.630625600008301,6
-1.9548941301795941,18.942553699826146,-54.86755724835517,43.06826921884067,6.501814759720801,-8.407795450385805,-3.2823908494670118,175.068,-0.6266256000082819,6
-1.1241584031504974,16.09245984685139,-52.4247145975011,43.13939885248168,4.256177610633772,-6.799030502660054,-3.1401328066551515,175.072,-0.6226256000082913,6
0.6910454565742299,12.389596956205725,-50.297148588655624,43.10006665697636,0.7116706247658515,-4.303077605838307,-2.292153500028213,175.076,-0.6186256000083006,6
2.934818017978756,8.55558229101218,-48.90059611620189,43.11680502279633,-3.232908242885362,-1.6080007908837715,-0.8657001818162096,175.08,-0.6146256000082815,6
4.26288910569997,7.20631874423497,-48.9523458812319,42.794425209273825,-4.564447077211008,-0.5085006028567233,-0.23833949790911463,175.084,-0.6106256000082908,6
3.5422480609421534,10.676214013657855,-50.912881117764016,41.651186909293344,-0.6828450950371739,-2.4844920728358177,-1.7894306982563093,175.088,-0.6066256000083001,6
0.8919901701159229,18.409214350586694,-54.316200406822176,39.799245493806296,7.781770736195744,-7.174010305702401,-5.392010038180055,175.092,-0.602625600008281,6
-2.253846010068148,26.701240175407325,-57.76799794111462,38.05780770813929,16.78990258764851,-12.30210547162276,-9.22500104838957,175.096,-0.5986256000082903,6
-4.225031228772518,31.410699243656573,-59.806766113528155,37.311087694009444,21.850777809314444,-15.32176784631709,-11.218999558362665,175.1,-0.5946256000082997,6
-4.441865355901425,31.350152121171764,-59.97252654321447,37.70602257052425,21.608229791051357,-15.405471155879654,-10.84454142775179,175.104,-0.5906256000082806,6
-3.8345663492135413,29.27791109554082,-59.15050060616457,38.46962844345662,18.87018874973289,-14.046674525735416,-9.585986807616756,175.108,-0.5866256000082899,6
-3.981926358513434,29.506943433373692,-58.847903133773045,38.544752379095264,18.163192883970748,-13.739989471561177,-9.645069732592026,175.112,-0.5826256000082992,6
-5.706784289617721,34.157966031254524,-59.98284669856658,37.48775344407411,21.923360999236987,-15.86944296826497,-12.010006518116304,175.116,-0.5786256000082801,6
-8.318092325571323,41.24044447248836,-62.17112567301292,35.86012914760978,28.487868408364562,-19.556887064969942,-15.542336964908502,175.12,-0.5746256000082894,6
-10.119381080084269,46.10819936251923,-64.0460472210943,34.82239297334172,33.37626494309917,-22.34215216051106,-17.799276817270446,175.124,-0.5706256000082988,6
-9.746551305843552,45.002533208048256,-64.28316961656998,35.30347645212394,32.642507666440544,-22.054791220067095,-16.864005184132058,175.128,-0.5666256000083081,6
-7.253379504075434,37.83545506447699,-62.49055272499967,37.38591018251224,25.656119858687266,-18.38592253669024,-12.747630339911108,175.132,-0.562625600008289,6
-4.111180401651844,28.18999789319688,-59.33792025340144,40.28456523629361,15.41728976841493,-13.046970381789693,-7.395781861062402,175.136,-0.5586256000082983,6
-2.1563953563092175,20.758957462749812,-55.95314860584093,42.838269207082334,6.459446655137512,-8.531760950039136,-3.415368412780329,175.14,-0.5546256000083076,6
-2.2964024034598562,18.2255978135767,-53.13222224357355,44.15709966508769,1.9520492128769942,-6.451109469883436,-2.455012574624518,175.144,-0.5506256000082885,6
-3.9160804703156264,19.744736380980953,-50.944738877577684,44.06841733673126,1.906648126719996,-6.588921272539696,-4.270061223999168,175.148,-0.5466256000082979,6
-5.3842834511865,21.90623612347289,-48.95704214629013,43.1527912659249,3.542089538745093,-7.26375649010625,-6.996034840559973,175.152,-0.5426256000083072,6
-5.2674431121360925,21.382099746674193,-46.85050879850404,42.35199958766042,3.503021309659812,-6.70095878238041,-8.418209950973853,175.156,-0.5386256000082881,6
-3.366039109288811,17.39525054951428,-44.94555524400167,42.352581178205135,0.4319822879852807,-4.441935599733252,-7.426284062680941,175.16,-0.5346256000082974,6
-0.8234091596443045,12.266366012321242,-44.176780189651474,43.13392207857203,-3.966936382824304,-1.7441206012140003,-4.6890417575591625,175.164,-0.5306256000083067,6
0.7707966118545513,9.572009961033151,-45.41306423764066,44.034895535620194,-6.322707653818332,-0.5889676340420302,-2.052962583006849,175.168,-0.5266256000082876,6
0.6068768220096546,11.193601927028897,-48.53700794660583,44.33748424729417,-4.5448986183775615,-1.9777369688868875,-1.07831946246242,175.172,-0.5226256000082969,6
-0.7397273142942938,15.549529811954187,-52.043769872919476,43.91104932843268,0.05124138210423183,-4.883707310298563,-1.8446160249787389,175.176,-0.5186256000083063,6
-1.8141043206033347,18.599463321587738,-53.70637125367018,43.34365162371557,3.443582382688564,-6.856085534187446,-3.01013621953089,175.18,-0.5146256000082872,6
-1.4965171856607924,17.031665987993954,-52.05994459932795,43.41033615444629,2.1281599020777917,-5.94160118813299,-3.0720990713962704,175.184,-0.5106256000082965,6
0.08679626390428483,11.064100292022038,-47.642667489458844,44.35404710331415,-3.8121850201070435,-2.3574060904418994,-1.6926850592326486,175.188,-0.5066256000083058,6
1.7426857280965746,4.3758959365415135,-42.88578813732192,45.6632181403871,-10.624735533063616,1.600260519735131,0.1284633456252261,175.192,-0.5026256000082867,6
2.330750212839083,1.0666472938414506,-40.51838729479103,46.56169323161955,-14.057264953811796,3.4506339227734144,1.1659275875293686,175.196,-0.49862560000829603,6
1.8221106121305637,2.2419254767929635,-41.63205412585804,46.718394779410666,-12.989519788462264,2.6053962734545433,1.233746772531596,175.2,-0.49462560000830536,6
1.316713515687505,5.289849313831551,-44.970134447784325,46.46549650273112,-10.159373617488004,0.7490462195055339,1.308402513516637,175.204,-0.49062560000828626,6
1.9706459548620712,6.510731277261082,-48.05157125133344,46.334842352235434,-9.294335553767022,0.15616805504693237,2.373519165694962,175.208,-0.4866256000082956,6
3.807189695894626,4.63283214522113,-49.17108561689739,46.44551926656593,-11.41896354128163,1.5113117845184292,4.193196265978922,175.212,-0.4826256000083049,6
5.537051540257864,1.902929998867857,-48.56582254148985,46.421719824081556,-13.929693401860549,3.287403848229505,5.346410731913645,175.216,-0.4786256000082858,6
5.6092002074666025,1.7839427332263829,-47.83858989501342,45.91572932032886,-13.294820114046777,3.252231583810685,4.572306164227682,175.22,-0.4746256000082951,6
3.568765538796133,5.582926661262211,-48.33942283137786,45.11131662101874,-8.62027451460649,0.6179345692954715,2.0787539556118215,175.224,-0.47062560000830445,6
0.49016835664036146,11.31678062614142,-50.08277492030866,44.57886643433012,-2.481368531642442,-3.2539319338943145,-0.5677400312664574,175.228,-0.46662560000828535,6
-1.9055960598668678,15.80225292570924,-52.09045629414623,44.589872777604256,1.741479656364997,-6.215128327160292,-1.922424678505078,175.232,-0.46262560000829467,6
-2.6297664929685474,17.676771660254918,-53.545068118814875,44.67560846723334,3.153689772847001,-7.312021612958484,-2.019213675593326,175.236,-0.458625600008304,6
-2.045295302885787,18.178725513933752,-54.38680369359224,44.03746517316975,3.749896372557977,-7.353694346574471,-2.1802937166089285,175.24,-0.4546256000082849,6
-1.2244351744766213,18.96934388572209,-54.75807078679426,42.49354850828563,5.507167701436009,-7.551148577393617,-3.4364055567791656,175.244,-0.4506256000082942,6
-0.7556754692333294,19.529417822396656,-54.132967371283016,40.94725266659849,7.403047622126547,-7.781675572248166,-5.209399698357158,175.248,-0.44662560000830354,6
-0.21204960352952368,17.26094228965112,-51.44843496935578,40.71293585732372,5.914702650445383,-6.494040345966795,-5.734055878568084,175.252,-0.44262560000828444,6
1.202540987041454,10.587309888825525,-46.44877914168451,42.185375176157194,-1.0159104796805722,-2.5653662177492107,-3.9451702129098596,175.256,-0.43862560000829376,6
3.5194145291514967,1.9116296678962346,-40.881916786047015,44.14355780685515,-10.487931812902547,2.7606220168119537,-0.9653754217652556,175.26,-0.4346256000083031,6
5.599775325134728,-3.0799622808287754,-37.92330535531052,44.53468877497857,-15.672680872812032,6.094863813065271,0.44662059577276336,175.264,-0.430625600008284,6
5.980965968702264,0.10534442848745701,-39.79084838015645,42.210601308965536,-11.250798355457976,4.535534506781415,-1.7907994773222435,175.268,-0.4266256000082933,6
4.242932528303734,10.356188740314334,-45.512549958014816,38.08896948099469,1.4187376600691661,-1.530616053266918,-7.063662398400175,175.272,-0.4226256000083026,6
1.5777103653317526,20.96713768145503,-51.11861165088737,34.609845447162265,14.423198637267012,-8.191997542379646,-12.267282937949021,175.276,-0.4186256000082835,6
-0.06621903333345994,24.633524783576487,-52.54506462714692,33.858743875169345,19.195068644538317,-10.89475075481435,-14.181302887989398,175.28,-0.41462560000829285,6
0.4433148907602463,19.30749254850915,-48.95418660368223,35.95093528516653,13.314991811498714,-8.090240786742088,-11.97230714551029,175.284,-0.41062560000830217,6
2.5447992256096765,9.717045722999334,-43.503362942772654,39.06195943312132,2.2688990181527013,-2.4298310142130055,-7.659509442897369,175.288,-0.4066256000082831,6
4.588864975962629,3.1171758423013456,-40.69004033124819,41.02682412492204,-5.4108139824083805,1.6010510142055712,-4.2330616437349935,175.292,-0.4026256000082924,6
5.337568668108499,3.063012245131227,-42.483719193504626,41.06462130826227,-5.299992296823445,1.5171121031127397,-3.1986028342866435,175.296,-0.3986256000083017,6
4.950927271609662,6.781944021105162,-46.659374096950025,40.157189580531714,-0.24337611530120934,-1.2756820373189603,-3.7116286236763227,175.3,-0.3946256000082826,6
4.583824201305737,8.350154234475312,-48.84025400204834,39.89416589145064,3.0161180199273945,-3.1310086151304053,-3.872999729980323,175.304,-0.39062560000829194,6
5.074646306441231,4.499007500889071,-46.41525467068481,40.96222551922192,0.32690118601903223,-1.6960745808656716,-2.7514512610207773,175.308,-0.38662560000830126,6
6.067416754991304,-2.4417236317813282,-40.799773441615486,42.65659794053144,-6.301941585968045,1.9883230216989944,-1.168899057856867,175.312,-0.38262560000828216,6
6.432669299511763,-7.065665531955693,-36.05308597112081,43.72556663030902,-11.074975704819936,4.67511948624508,-0.6396282081694177,175.316,-0.3786256000082915,6
5.521407210115406,-6.213424347767915,-35.215898852552996,43.60300713304212,-10.097977503326346,4.0959752291664735,-1.693088868676725,175.32,-0.3746256000083008,6
3.9376435681160267,-1.874071214529342,-37.76175237335136,42.82677579734626,-4.841038851884577,1.039096793336036,-3.3266537190330143,175.324,-0.3706256000082817,6
3.007405692515007,1.0152073883473265,-40.402627786814556,42.3470139571491,-0.29309163590797016,-1.5877776986580219,-4.086129916630852,175.328,-0.36662560000829103,6
3.464671239157199,-0.5111986627189301,-40.30684327698646,42.5399514367909,0.02965891513922955,-1.6432031870580248,-3.5730364643238963,175.332,-0.36262560000830035,6
4.702915042561752,-4.7673713761121395,-37.611361273368686,42.95866453790531,-2.8301926114474756,0.31126672896737434,-2.7639210485061283,175.336,-0.35862560000828125,6
5.392348934061935,-7.544330698726193,-34.9436323968387,43.01193365072782,-4.978864049898668,1.8683265200615744,-2.805781959387754,175.34,-0.3546256000082906,6
4.870732667161252,-6.727388984927596,-34.605227549946555,42.7683030972686,-4.157824119183411,1.443655826882943,-3.5922509372552134,175.344,-0.3506256000082999,6
3.893688514673384,-4.622170355099419,-36.2453348681891,42.9665545301607,-2.2876097841545495,0.0010736213850196298,-3.7062016587760116,175.348,-0.3466256000082808,6
3.9413354306595205,-5.6156858470813855,-37.237106800354944,44.18681318012787,-3.470469641187277,0.09295837017020486,-1.8978446923339858,175.352,-0.3426256000082901,6
5.733086249422843,-11.591795412113127,-35.277722748755096,46.07878703813938,-9.564976874483428,3.2124262056336703,1.4101955421557815,175.356,-0.33862560000829944,6
8.432189722776855,-19.82182462003778,-30.628467411449183,47.54822893925183,-17.944050413871395,8.152679987421969,4.261243795907717,175.36,-0.33462560000828034,6
10.36472117707025,-25.53158342282632,-25.87361388933136,47.822955273080034,-23.821286498122824,12.043434507368227,4.9953728527620065,175.364,-0.33062560000828967,6
10.573935163349537,-26.58001975816066,-23.534737881670896,47.34744101193526,-24.86630943871714,13.044634637735168,4.015056265528733,175.368,-0.326625600008299,6
9.690704614068988,-25.525027829134626,-23.880981962845812,47.524535232594054,-23.471108793094636,12.03391472733224,3.627964011079785,175.372,-0.3226256000082799,6
9.275812850736626,-26.98887988327054,-24.946337924978955,49.43299857384181,-24.364177367383707,11.651326142892918,5.9392576081618405,175.376,-0.3186256000082892,6
10.3035360480125,-32.98076541529243,-24.560535116202388,52.71540325653625,-29.929868139557406,13.695270338063905,10.75695902843958,175.38,-0.31462560000829853,6
12.28770836460051,-40.874270110373295,-22.3368394944733,55.753140507000744,-37.87377091581756,17.452790573247004,15.591241075815908,175.384,-0.31062560000830786,6
13.87823929792806,-46.03503566578076,-19.7769918917792,57.03921000602654,-43.50679797426937,20.547325145399622,17.8540510824751,175.388,-0.30662560000828876,6
14.2763142416222,-46.420793653186315,-18.584114465005605,56.486030197017094,-44.320824112714696,21.362334166219433,17.20105362604789,175.392,-0.3026256000082981,6
14.024128771386078,-44.54919962605392,-18.9520943754629,55.43426823566653,-42.31495619105366,20.593144991822385,15.76470819369551,175.396,-0.2986256000083074,6
14.392241636388501,-44.92295712354074,-19.460349376652275,55.36026486577075,-41.85374677371383,20.438576030911015,16.045970740836584,175.4,-0.2946256000082883,6
16.00892244054925,-49.527714901272844,-18.540424932573064,56.52063415637845,-45.28344619048092,22.323457972970317,18.49857145442882,175.404,-0.2906256000082976,6
18.117432422424372,-55.84181172872745,-16.005565296561194,57.81151338754355,-50.65122450063693,25.44339381769287,21.12626189826477,175.408,-0.28662560000830695,6
19.200704063632667,-59.215919437884935,-13.214965738675554,57.92794967378155,-53.66585713150326,27.521165182207973,21.446923388441544,175.412,-0.28262560000828785,6
18.367773654334567,-57.20589374676085,-11.844660511315357,56.66366910505252,-51.84674649922642,26.96241471150831,18.903443286407246,175.416,-0.27862560000829717,6
16.191187445109584,-51.713549047516764,-12.505617365508078,55.10042413679461,-46.81079545749246,24.308250411759524,15.430099876853607,175.42,-0.2746256000083065,6
14.258092413329402,-47.12119552388326,-14.426241022798619,54.55091250776668,-42.65850772396022,21.685467881092652,13.711471468453352,175.424,-0.2706256000082874,6
13.91300362492131,-46.46772742184514,-16.291880769005754,55.31726800369268,-42.24293336994329,20.92134512554181,14.850924806638401,175.428,-0.2666256000082967,6
15.332657577767248,-49.29516619332295,-17.302950660032227,56.45164563376779,-44.93345152869165,22.146641631388587,17.60062353912321,175.432,-0.26262560000830604,6
17.63181264552338,-52.816314806485714,-17.51399622893917,56.69267685840651,-47.7360883754596,24.043459819334227,19.698450087620376,175.436,-0.25862560000828694,6
19.706685690584504,-54.78947783193237,-17.375181691759586,55.63705955252164,-48.30897044856337,25.240752858281954,19.889131870867228,175.44,-0.25462560000829626,6
20.974241111593074,-55.19646448527084,-17.152439168558185,54.05537461632615,-46.850079157816495,25.406903203069618,18.762463880656675,175.444,-0.2506256000083056,6
21.48106490177675,-55.47104614942239,-16.841515324889333,53.14280085406207,-45.32946284405446,25.143773794112878,17.874384768414476,175.448,-0.24662560000828648,6
21.559122684803437,-56.600229185248864,-16.514236405837995,53.48842199430434,-45.28196431966953,25.09317174735463,18.25571348429397,175.452,-0.2426256000082958,6
21.53469368312479,-58.26074742738831,-16.53548073396745,54.710249633082455,-46.551224314631334,25.335724103632472,19.766785056147366,175.456,-0.23862560000830513,6
21.713770205959865,-59.674020395806394,-17.282829809576103,55.975768042833764,-48.03156123448353,25.626319447160263,21.672553743912136,175.46,-0.23462560000828603,6
22.421691550118894,-60.895530328872546,-18.62692782585673,56.79561606832596,-49.25009034005136,25.99467325829047,23.56056761804531,175.464,-0.23062560000829535,6
23.82230097915108,-62.91109847748819,-19.78191396761216,57.32963715749789,-50.901946600176956,26.876708937125272,25.566311971503062,175.468,-0.22662560000830467,6
25.614554140755843,-66.39438517882273,-19.817134173329897,58.02196772394174,-53.79251674376948,28.562189881542118,27.80532434968243,175.472,-0.22262560000828557,6
27.01158082937746,-70.55402964395078,-18.449208963957922,59.03744914611559,-57.46895977251239,30.59834287857237,29.82482552635565,175.476,-0.2186256000082949,6
27.222570148117153,-73.46013687949392,-16.39418185035196,60.07856657609512,-60.17643685175261,31.915703426959336,30.813915430426864,175.48,-0.21462560000830422,6
26.122468712199765,-73.67830078874715,-14.912258758786312,60.706334411384105,-60.344547049526184,31.694184929707916,30.412118543767853,175.484,-0.21062560000828512,6
24.484527678647336,-71.63405190650121,-14.898605743516118,60.78935859910144,-58.15162406342804,30.161668090196876,29.248727345499713,175.488,-0.20662560000829444,6
23.458222258095933,-69.3375193332464,-16.280232366088892,60.63842472174697,-55.55868150971189,28.49928822802205,28.58049800118225,175.492,-0.20262560000830376,6
23.663377125626845,-68.68298954585423,-18.193554843389553,60.737978385800055,-54.693666249283154,27.86798712137473,29.300868005725302,175.496,-0.19862560000828466,6
24.679722437444845,-69.89634800648591,-19.72152530041897,61.35820972143868,-56.080510752985454,28.437186885785387,31.223265015221404,175.5,-0.194625600008294,6
25.40834896361434,-71.51801453510268,-20.517122855571248,62.3787513608476,-58.343287436941374,29.318254361742895,33.27307014141046,175.504,-0.1906256000083033,6
25.01144469034799,-71.82301282121547,-20.82692902842785,63.40506447376348,-59.57491950235043,29.447592505214615,34.36075968266765,175.508,-0.1866256000082842,6
23.606535379256613,-70.27125190121892,-21.029960314165233,64.0065541782665,-58.98690996538784,28.56011727881915,34.114915344429726,175.512,-0.18262560000829353,6
22.1041894719091,-67.6744407604799,-21.225766064566056,63.877999899721154,-57.27742157765434,27.32407458605755,32.871364445012496,175.516,-0.17862560000830285,6
21.350202631134195,-65.08310319610338,-21.2641836867173,62.88049909798208,-55.493479309087306,26.53910069040791,31.070963772383806,175.52,-0.17462560000828375,6
21.35961081302739,-62.615960996056266,-21.10041007996086,61.04835836860248,-53.66898884363693,26.222055167696546,28.755335570327656,175.524,-0.17062560000829308,6
21.33724506839358,-59.425605210267456,-21.021752003815287,58.625690269549445,-50.71565276544857,25.52111587792038,25.67895876366791,175.528,-0.1666256000083024,6
20.456432474039147,-54.81571978640536,-21.45577957516685,56.085659673633394,-45.75611106851638,23.590750212510297,21.89476806990576,175.532,-0.1626256000082833,6
18.677928696551632,-49.37440200043675,-22.53483396576882,54.03858770572192,-39.59034588833401,20.605011425411085,18.17805402685493,175.536,-0.15862560000829262,6
16.860854656878967,-44.96045996981534,-23.863203801538692,53.01612827386178,-34.748737350524586,17.907091618389256,15.788326572748623,175.54,-0.15462560000830194,6
16.062847959228634,-43.46122227152097,-24.740106231686084,53.24259111548152,-33.857699205992326,17.07116658685901,15.682422047630242,175.544,-0.15062560000828285,6
16.651783995233895,-45.37724779884394,-24.65306406548823,54.54042679259975,-37.62682414928915,18.65726321326424,17.80766201252345,175.548,-0.14662560000829217,6
18.003411978523857,-49.42584549401911,-23.624806164243967,56.42557896189338,-44.16909208717921,21.73006268154859,21.060690123476483,175.552,-0.1426256000083015,6
19.02258380534808,-53.42510479720016,-22.174676891294638,58.31661237289458,-50.22615119614521,24.533206453733058,23.953530252664297,175.556,-0.1386256000082824,6
19.00742271009399,-55.647153835340546,-21.009206604593732,59.72804590326961,-53.268083601458535,25.715291715472222,25.473683712557037,175.56,-0.1346256000082917,6
18.119588801442998,-55.58909479371539,-20.71113475697737,60.37636371593282,-52.82548263027592,25.104703045019278,25.525056618573597,175.564,-0.13062560000830103,6
17.12070865954021,-53.79895920722948,-21.557590150524877,60.21795656826463,-50.23879808462272,23.52837066719887,24.728311547373366,175.568,-0.12662560000828194,6
16.680671670655094,-51.223317675706376,-23.41943149913157,59.45992472322123,-47.373171509011776,22.016550485423988,23.858773804549436,175.572,-0.12262560000829126,6
16.870981392926545,-48.712558813114384,-25.72554771670134,58.5241013847995,-45.46973700441786,21.130542513302192,23.38221824320536,175.576,-0.11862560000830058,6
17.205382691760995,-46.83492390150682,-27.632261869782578,57.896697469272105,-44.79630855876068,20.830404633701928,23.33100953531506,175.58,-0.11462560000828148,6
17.085757522529487,-45.723421733067646,-28.502227649134475,57.86021169604457,-44.87828911703358,20.72478983696531,23.433179443696346,175.584,-0.1106256000082908,6
16.234996799008925,-44.85241333286166,-28.461875387963833,58.256729401905396,-44.80303487104962,20.331782481385336,23.293814909575453,175.588,-0.10662560000830013,6
14.834021161547554,-43.12467838545511,-28.508949252848012,58.51355023892793,-43.51295664794804,19.23475620131341,22.564256684462297,175.592,-0.10262560000828103,6
13.392542237353993,-39.66451374098632,-29.83923822971548,58.026925811683576,-40.37034307650814,17.292627547010067,21.161999451162313,175.596,-0.09862560000829035,6
12.531882338703536,-34.97832096014501,-32.75254488769343,56.69543645807994,-35.95317525625908,14.947498272959757,19.5092240343543,175.6,-0.09462560000829967,6
12.769321343623158,-31.382273467832768,-36.064450203301575,55.17861571054128,-32.3683118653488,13.314929084067682,18.552169398251056,175.604,-0.09062560000828057,6
14.286453294526556,-31.843558000354246,-37.718728070257555,54.5815142923952,-32.33099116359627,13.689531710374796,19.335777936911562,175.608,-0.0866256000082899,6
16.73276368561792,-37.75013273581036,-36.29646399244956,55.70635866054784,-37.26755502554164,16.603201064147648,22.271828343488178,175.612,-0.08262560000829922,6
19.261940190815743,-47.40964942136382,-32.21376438695825,58.41945727269068,-45.89367632823525,21.184971276971233,26.65072139607967,175.616,-0.07862560000828012,6
20.947222317906448,-56.83595532849525,-27.515909826725096,61.66369511075181,-54.728444285547944,25.54918661164585,30.92020540046419,175.62,-0.07462560000828944,6
21.39550358563503,-62.50707462427438,-24.342793096370887,64.15497710923738,-60.46831054519522,28.102011418890836,33.665686152077285,175.624,-0.07062560000829876,6
21.075315951424813,-63.88610590407786,-23.344273585416154,65.22974306103258,-62.35661769224275,28.725566442522723,34.55637172675666,175.628,-0.06662560000830808,6
20.98537291389678,-63.4872751199935,-23.41583322047318,65.17404037538607,-62.45789585865727,28.751881291657224,34.44970961818389,175.632,-0.06262560000828898,6
21.83722361772654,-64.379278790741,-22.951445497094397,64.8095129877422,-63.531821293901054,29.6714817367843,34.544327239483394,175.636,-0.058625600008298306,6
23.42880163754932,-67.37455490402195,-21.43136964574372,64.74841769700112,-66.4290605659849,31.72194938014543,35.335816401054714,175.64,-0.05462560000830763,6
24.80282766600584,-70.47416105027963,-19.874583401430364,64.97656305830023,-69.423359983904,33.677546434534676,36.315167276773245,175.644,-0.05062560000828853,6
25.098982644609116,-71.00944397050851,-19.773473985450643,65.06154921034383,-70.06075568845338,34.053422191910556,36.62971959754904,175.648,-0.04662560000829785,6
24.33512527879573,-68.33697203210575,-21.56634759949954,64.67804103763687,-67.66351227542926,32.56921216291555,35.98445342768639,175.652,-0.042625600008307174,6
23.37131400699618,-64.43129117614093,-24.125655673716203,63.88689067675667,-63.987450456630214,30.437352594722302,34.84884002801221,175.656,-0.038625600008288075,6
23.06625725999127,-61.830102737107126,-25.750819157142974,62.93414084546232,-61.38884694838931,29.176818567483977,33.792552169701864,175.66,-0.0346256000082974,6
23.43002327950269,-61.063665207275236,-25.7063256693885,61.885511235623056,-60.40408127446468,29.1230019615449,32.735535674457786,175.664,-0.03062560000830672,6
23.619089077703613,-60.26423858340093,-24.82237183824761,60.59132030141616,-59.31109073404393,29.14937473084035,31.037917045732353,175.668,-0.02662560000828762,6
22.824162406960795,-57.47356772620605,-24.570689809908135,59.083298995319964,-56.27465763547361,27.948866554779364,28.462587214527648,175.672,-0.022625600008296942,6
21.213523291739122,-53.36060817309813,-25.487606360781097,57.950861495232374,-51.972534143652126,25.65095071041671,26.005413180143144,175.676,-0.018625600008306264,6
19.98720003301308,-51.444658940469154,-26.458874851743044,58.14674306542972,-49.88181182894084,24.12300815846236,25.528394364247898,175.68,-0.014625600008287165,6
20.4077280188222,-55.21645087742481,-25.60208211392095,60.20334349259588,-53.52135321407671,25.49213988043355,28.236674813570843,175.684,-0.010625600008296487,6
22.647705034698365,-64.61879387991358,-22.005686220377754,63.50988707881897,-62.95211771179752,30.132301451354515,33.28670424721702,175.688,-0.00662560000830581,6
25.50524181510116,-75.21408474663313,-16.770339348888005,66.40980083220585,-73.82378357854823,35.96548241048251,37.92768261627983,175.692,-0.0026256000082867104,6
27.27760291796909,-81.09945772780335,-12.388042198277281,67.22943683407343,-80.15981425839695,39.820470331049975,39.319804101385095,175.696,0.0013743999917039673,6
27.057818267757597,-79.27185203042575,-10.948587323210683,65.49066800812815,-78.74374966608161,39.77378152595661,36.641921217875684,175.7,0.005374399991694645,6
25.3677581343923,-71.78730454215409,-12.675774935302043,62.298826486226645,-71.45769466474053,36.52148533523766,31.73270418634007,175.704,0.009374399991713744,6
23.65252214291376,-63.947213445894555,-15.982972625212302,59.53329040541491,-63.63353501639426,32.67652441311969,27.70138412605274,175.708,0.013374399991704422,6
23.13826927374609,-60.14959105523981,-18.90585115349693,58.474374961558624,-59.8749282375046,30.66480939097377,26.65291681996285,175.712,0.0173743999916951,6
24.01929394081224,-60.91442894071275,-20.61366090825182,58.98464893854158,-60.86834555088879,31.016132852566702,28.376359667932828,175.716,0.0213743999917142,6
25.545580047480797,-63.3602915488355,-21.721921313445105,59.88164224524226,-63.67118744069627,32.378437621973674,30.947740388280156,175.72,0.025374399991704877,6
26.774526864699364,-64.32605121819846,-23.26402879263205,60.112781099523,-64.88177949296545,33.034917483088634,32.549634056484976,175.724,0.029374399991695554,6
27.273616899477727,-63.19461842911392,-25.382292838006528,59.67903123352222,-63.73407475613382,32.479524847831996,32.87881304242234,175.728,0.033374399991714654,6
27.256152030009535,-62.05281892181841,-26.997426931806224,59.526248472067536,-62.49533395267215,31.718327375130432,33.04485192908928,175.732,0.03737439999170533,6
27.201227784179114,-63.36980808406464,-26.763643955153253,60.56444746427301,-64.08100279380308,32.1854376658555,34.26334191871338,175.736,0.04137439999169601,6
27.392305105949102,-67.49966719203321,-24.40769589618903,62.732702419907575,-69.18337767253449,34.342657788493405,36.623075446406666,175.74,0.04537439999171511,6
27.734553172212625,-72.21256477478325,-21.192739537707954,64.9414424859337,-75.41865594297944,37.17967861603749,38.968285981286826,175.744,0.049374399991705786,6
27.876361675220537,-74.4598808328149,-19.05451302667365,65.91087703474336,-79.06477791302416,38.946145673343686,39.84578738920512,175.748,0.053374399991696464,6
27.436987115493356,-72.64075252191255,-19.167844565789032,65.14181689893047,-77.75558081271645,38.402665419509844,38.58270846648437,175.752,0.05737439999171556,6
26.182299868165224,-67.45215175931465,-21.19579720982076,63.195441537482175,-71.91551501129531,35.56754089254998,35.61818168223332,175.756,0.06137439999170624,6
24.13628327459297,-60.910783832683016,-23.815519432971247,61.126832684954195,-64.04660191555342,31.502958229677525,32.00683099198302,175.76,0.06537439999169692,6
21.64936841881326,-54.75835707985313,-25.947912087925253,59.661707883781006,-56.822370871341334,27.50676005281789,28.710803683707564,175.764,0.06937439999171602,6
19.35516902273003,-49.71372850990627,-27.541296872303214,58.848184233464615,-51.6592413396709,24.422542638345412,26.288370827340337,175.768,0.0733743999917067,6
17.91881224553493,-45.89202378658838,-29.276201442808397,58.378463715516034,-48.619123830120685,22.469994816876277,25.02007828159024,175.772,0.07737439999169737,6
17.637199484087674,-43.4874621757157,-31.617486905972516,58.121595994452775,-47.1701439625661,21.462129366351565,25.054168199362326,175.776,0.08137439999171647,6
18.170111401108088,-42.75899720939054,-34.202651879902334,58.271906878883335,-46.797615482896205,21.052674833904526,26.264571458293158,175.78,0.08537439999170715,6
18.694065777158688,-43.39263836251248,-36.123158136329465,58.99036509214947,-47.027221148180054,20.854163793524407,28.004422984189457,175.784,0.08937439999169783,6
18.46999585540822,-44.20269313276054,-36.73095735487328,59.98347856476029,-47.2623152325213,20.5381189143477,29.20437238563892,175.788,0.09337439999171693,6
17.423289805460897,-43.835171079880276,-36.13591810752385,60.53972213328821,-46.97390121371695,20.01837587076473,28.96360259160726,175.792,0.0973743999917076,6
16.233493605899934,-41.94866886142876,-34.97133482492414,60.05953648776976,-46.155948205076065,19.57482430919258,27.208097488566715,175.796,0.10137439999169828,6
15.789227618453742,-39.61414095609221,-33.790675528668864,58.58087075837152,-45.41911492050377,19.670970343878658,24.782862684560946,175.8,0.10537439999171738,6
16.41983432488372,-38.32424844057852,-32.769797290917246,56.77464398725143,-45.381392472023215,20.482678116432528,22.798281774951334,175.804,0.10937439999170806,6
17.568008814293183,-38.46772126174667,-31.94269918512845,55.39645161640382,-45.867970578167515,21.54762926027462,21.766301334071027,175.808,0.11337439999169874,6
18.235060611035202,-38.84240203622206,-31.54888666397985,54.710394707151224,-45.8470567438562,21.980819121819493,21.31207100405219,175.812,0.11737439999171784,6
17.854587720157284,-37.851489505151086,-31.96386910163031,54.41199110066605,-44.3904462432934,21.21391258384675,20.725313445404726,175.816,0.12137439999170851,6
16.82845152330589,-35.27858200015976,-33.22722736296679,54.06758921670905,-41.816347237126095,19.630343889338352,19.795771970899352,175.82,0.1253743999916992,6
16.210596484651244,-32.785415182456376,-34.73401353044556,53.584492140850806,-39.77474870863598,18.422338538307514,19.07675025772837,175.824,0.1293743999917183,6
16.771165441461875,-32.4334086717995,-35.557518027699714,53.233852077281824,-39.94028879048665,18.651787781244693,19.27441018999749,175.828,0.13337439999170897,6
18.25449016832649,-34.53735397357715,-35.200766206438665,53.236526019378374,-42.37962534209603,20.28000903823705,20.346720296169938,175.832,0.13737439999169965,6
19.506838151164928,-36.96818737125508,-34.06683680103426,53.3737551862824,-45.127179234086874,22.05189557337974,21.229714495549157,175.836,0.14137439999171875,6
19.385103677340577,-36.7116737878117,-33.17208715191708,53.04587115713978,-45.472361180412136,22.390043371631023,20.535103914029563,175.84,0.14537439999170942,6
17.655299145262557,-32.30782222602064,-33.36873525853828,51.74071255678741,-41.895213282169166,20.54146794601406,17.634291118664063,175.844,0.1493743999917001,6
15.107232389255682,-24.941734216578926,-34.80068412893336,49.47770312453583,-35.02957780414408,17.012058597665195,13.175002038199679,175.848,0.1533743999917192,6
12.839500585293079,-17.30389845961972,-37.01354899102766,46.84512275957503,-27.01009847947528,13.023619521058917,8.619303064195634,175.852,0.15737439999170988,6
11.417410192488616,-11.493509454909745,-39.44201799317331,44.64471062200613,-20.033440993602273,9.624032809145671,5.282814818044924,175.856,0.16137439999170056,6
10.662286612583344,-7.986729670358406,-41.68875117707213,43.46943520376819,-15.442397085700309,7.276380959406271,3.7097751573730466,175.86,0.16537439999171966,6
10.158326505719268,-6.336900439703654,-43.39842212848227,43.492049909285804,-13.765917535263858,6.104374374610906,3.74648931383383,175.864,0.16937439999171033,6
9.848098740332453,-6.367754459942457,-44.10810839469856,44.47612954841025,-15.031247528058138,6.232518374652774,4.9503637193037004,175.868,0.173374399991701,6
10.052809809004899,-8.266261620944604,-43.494884767903635,45.875520757779654,-18.60246190462145,7.655323480380485,6.77995424630467,175.872,0.1773743999917201,6
10.921693495783478,-11.520191588563312,-41.8690955963941,46.981364208757185,-22.7885726459509,9.782434653417889,8.49236747294977,175.876,0.1813743999917108,6
11.976795163078558,-14.265988998287412,-40.275567706281365,47.19349148933307,-25.199078980861227,11.379997948917413,9.190351084100982,175.88,0.18537439999170147,6
12.359521994736163,-14.357863468909443,-39.83431123093536,46.39409630243485,-24.225489088986325,11.321702820393671,8.342342671266458,175.884,0.18937439999169214,6
11.636650154658122,-11.473434959078192,-40.78886810821007,45.1612724938725,-20.59009705939245,9.62198869553593,6.4324887826141675,175.888,0.19337439999171124,6
10.359767563866747,-8.0324723934602,-42.21399090501717,44.51583836288936,-17.288091180514517,7.685649465570887,4.973299086664891,175.892,0.19737439999170192,6
9.719279756005468,-7.518237853486784,-42.81804657527647,45.23133708975204,-17.4430038904584,7.286113007383207,5.542558466080946,175.896,0.2013743999916926,6
10.501457662982963,-11.371221285816212,-42.179264986289326,47.1957383757976,-21.649334214458612,9.023475565286336,8.479148882497247,175.9,0.2053743999917117,6
12.2932568634241,-17.346224040060168,-41.211146773990684,49.40302548159112,-27.20350653399691,11.667818360285496,12.396776642747051,175.904,0.20937439999170238,6
13.72226992000196,-21.13143352281767,-41.316376457712266,50.68012616806563,-30.158514752128916,13.103074334966971,15.100854309624292,175.908,0.21337439999169305,6
13.577849805447233,-19.98986716414396,-42.975873622472896,50.59524936725704,-28.583881655598105,12.122302872785456,15.254220396725254,175.912,0.21737439999171215,6
11.828921284244712,-15.14745686854692,-45.140917024537366,49.7741220591375,-24.191800518498447,9.484604298985332,13.39252676921521,175.916,0.22137439999170283,6
9.634582551691857,-10.693350812250399,-46.07786145657989,49.32632560972401,-20.854400362426404,7.270393071593723,11.39431139824713,175.92,0.2253743999916935,6
8.356463722619576,-9.950072548277722,-44.92615805723189,49.85505686930881,-21.281386329950045,7.099438351392875,10.846657992138402,175.924,0.2293743999917126,6
8.460017014799636,-12.575552291188577,-42.531684483071395,50.89310622174159,-24.724307577375093,8.775426231901262,11.702994883192575,175.928,0.23337439999170329,6
9.235417722755594,-14.924668801401209,-40.79084970495128,51.24138660370471,-27.602171394255475,10.490260494407332,12.350625079740334,175.932,0.23737439999169396,6
9.494101286207762,-13.213965789317017,-41.11518909948906,49.92005885660443,-26.385688986089466,10.322644658784336,10.978039073299032,175.936,0.24137439999171306,6
8.562918504781647,-6.64167713174274,-43.37631167691507,46.953671952532446,-20.27836032916899,7.711057557442501,7.068701123070215,175.94,0.24537439999170374,6
6.738551026040694,2.096154615002339,-46.160902966349944,43.39300984137344,-11.653948383268338,3.75238976547723,1.8347461017245836,175.944,0.24937439999169442,6
4.926196046277906,9.016347292017926,-47.95629627466703,40.61622821189528,-4.21815243371922,0.26896926580475905,-2.65329210760961,175.948,0.2533743999917135,6
3.8796947989203265,11.70326335861868,-48.172058524205596,39.48243808215101,-0.5656051537417394,-1.4619363790733957,-4.865796182669276,175.952,0.2573743999917042,6
3.686684181352438,10.580461012207913,-47.25014121393053,39.93249877331491,-0.8990225213874813,-1.3633198172413772,-4.6871604143158425,175.956,0.2613743999916949,6
3.819209107742531,8.02821722725565,-46.03068000766556,41.21339295806507,-3.451456115389202,-0.32224919498240406,-3.2564339750260745,175.96,0.26537439999171397,6
3.588224679113897,6.49445930112204,-45.09442921798167,42.440866018817815,-5.880194740401715,0.5292527445355243,-2.078178785205874,175.964,0.26937439999170465,6
2.6111336561289846,7.140117664609912,-44.58825038147935,43.0572668860781,-6.5293663141552765,0.43926210606398547,-2.130163617246331,175.968,0.2733743999916953,6
1.0079572858676482,9.697664084137003,-44.45423237734379,42.93313415039258,-4.935781892245687,-0.7289403336045419,-3.519800917203177,175.972,0.2773743999917144,6
-0.7158415216798819,13.168831573709687,-44.67144592204904,42.18307247590789,-1.6188553853977352,-2.6115064956004908,-5.734254724890406,175.976,0.2813743999917051,6
-1.9707133274965003,16.598537584464054,-45.286090009192016,40.954865737161185,2.4561570262603003,-4.62973186325523,-8.123025147941755,175.98,0.2853743999916958,6
-2.3906753926848747,19.44858242053221,-46.321377740695844,39.391343055885294,6.365559704920299,-6.286293377246733,-10.207138670710332,175.984,0.2893743999917149,6
-1.9980226493224327,21.557087260585835,-47.74031874642029,37.744074864827624,9.473723076590673,-7.355937133762354,-11.680606672499032,175.988,0.29337439999170556,6
-1.1544802628864967,22.926939063235608,-49.47372657884547,36.43972872497034,11.455679858518005,-7.903791309078717,-12.29034949591325,175.992,0.29737439999169624,6
-0.3466328436750948,23.592608292895886,-51.401921539051834,35.927544216902426,12.256142825139115,-8.157472460884712,-11.870268491325769,175.996,0.30137439999171534,6
0.048605450351693,23.665405015029023,-53.261360417825465,36.360230267345905,12.121478095188676,-8.350738700263134,-10.583619709826678,176.0,0.305374399991706,6
-0.1154730572844065,23.443053292772785,-54.60176981043624,37.38213974143058,11.636580818504017,-8.640069309053978,-9.104461675932727,176.004,0.3093743999916967,6
-0.7601506213065482,23.334839237512842,-54.91893805366347,38.284217488271466,11.526040786498578,-9.074436908820628,-8.39157192849223,176.008,0.3133743999917158,6
-1.6205594371307692,23.48960583557417,-53.91781007922769,38.491184904245905,12.131798211938664,-9.534467271623349,-9.039752163776894,176.012,0.31737439999170647,6
-2.2724331670126467,23.40683028541833,-51.7234611630256,38.01077934891143,12.929893774631104,-9.668473099889015,-10.683135979033578,176.016,0.32137439999169715,6
-2.232964950551412,22.074755309162075,-48.90547970296554,37.43309180053457,12.708603540057188,-9.008779804248547,-12.069226191988324,176.02,0.32537439999171625,6
-1.2373437555184537,18.861776896287186,-46.33097693339369,37.42425497914036,10.608783788447694,-7.3788974032048635,-11.947597571758214,176.024,0.3293743999917069,6
0.41561031509790797,14.572276024023978,-44.925780447213874,38.128558999183845,7.306724800655231,-5.349804136796616,-10.147585554950448,176.028,0.3333743999916976,6
1.7941732217591433,11.54232111887974,-45.36978698976616,39.02918854935099,5.103361588871486,-4.221955141046235,-7.877302348048941,176.032,0.3373743999917167,6
1.8187048388804103,12.17310587850127,-47.737804706964404,39.44113058391195,6.3483802793044575,-5.233329589109771,-6.810187284523893,176.036,0.3413743999917074,6
0.12004717696704353,16.711145392994478,-51.2290521051794,39.2261355257519,11.157986220821527,-8.400428232593582,-7.58583397876194,176.04,0.34537439999169806,6
-2.3893255194660585,22.15189429367641,-54.26781353367369,39.06774517020202,16.412002093699883,-11.970293151174507,-9.004209353264029,176.044,0.34937439999171715,6
-3.861153305426157,23.64797733936439,-55.14807321465949,39.98957188999433,17.346946836526808,-13.221106728381214,-8.754162817418635,176.048,0.35337439999170783,6
-2.7312169648367965,17.85029696610229,-52.995888650801646,42.46106880224452,10.976549801962605,-10.304635617389932,-5.256174337281014,176.052,0.3573743999916985,6
1.0324768164549118,5.7785717738630344,-48.44608057810935,45.82892328461926,-1.2039528194557834,-3.8143265210767825,0.8243880437047432,176.056,0.3613743999917176,6
5.680613238658443,-7.179754147391126,-43.47219331922421,48.58559597992601,-13.556308715249806,3.247128853413023,6.694918109867685,176.06,0.3653743999917083,6
8.7521282481018,-14.48662418174327,-40.34055422304845,49.32932985635011,-19.766116547828027,7.280274843412159,9.231562004755707,176.064,0.36937439999169897,6
8.723042705144485,-12.716298472874449,-40.30222006701024,47.7276265826066,-17.03168504978687,6.445567988074782,7.153966313845712,176.068,0.37337439999171806,6
5.99470399361555,-3.791941204289676,-42.87588003096641,44.788956237602065,-7.901428513573336,1.8374345070826836,1.9481550105291503,176.072,0.37737439999170874,6
2.4952110093757995,6.407841999660538,-46.20392513141845,42.2470901966635,1.575769772928325,-3.3752472592533556,-3.1467405879563395,176.076,0.3813743999916994,6
0.267046183921305,12.008756294822678,-48.24744763656169,41.47396240192987,5.973217803549627,-6.154769308186641,-5.320765739475112,176.08,0.3853743999917185,6
0.16551306070778202,10.809196389665262,-48.03145986281001,42.63920689037807,3.8678755883639586,-5.496592479478404,-3.9537395868266367,176.084,0.3893743999917092,6
1.5931634117918685,5.170274393536818,-46.12995392388015,44.659101227651924,-1.8203712029800818,-2.7186280508001173,-0.7535858553202387,176.088,0.3933743999916999,6
3.2834799624002504,-0.23128635183453713,-44.09715078188304,45.96007750710321,-6.47665794577209,-0.126538805431736,1.6880764154179788,176.092,0.397374399991719,6
4.342273804779898,-1.9135122361437882,-43.26985836932332,45.544068200445636,-7.227841354250355,0.767619239131354,1.7572507153605996,176.096,0.40137439999170965,6
4.705299301215681,0.24482545541834855,-43.812138773565714,43.623909534331865,-4.603761682995376,0.11061533086267444,-0.26874916526746306,176.1,0.40537439999170033,6
4.8123219032690026,3.591061815339755,-44.71336037626194,41.37435396130718,-1.4210274631579058,-0.8406326953255536,-2.8027171451705217,176.104,0.40937439999171943,6
4.9890603826404964,5.2835967848366705,-44.738685090197656,39.982852816442346,-0.09137708570481375,-1.0252129559817718,-4.400234852035247,176.108,0.4133743999917101,6
5.16885173876812,4.643235707585842,-43.559188378600076,39.74037810149479,-0.6842913003552622,-0.46669116594622884,-4.842294702947178,176.112,0.4173743999917008,6
5.135611498701949,3.3786917336462725,-42.0928385551102,39.914147030149564,-1.2753939478558434,-0.04915627406805085,-5.0110614854636735,176.116,0.4213743999917199,6
4.920330604407714,3.6732713518000835,-41.71728210427244,39.51055979457317,-0.07679004588185612,-0.5094912013402837,-5.80059839928637,176.12,0.42537439999171056,6
4.863235090250451,5.97952801591414,-43.01034152452587,38.25547814887598,2.702046641768542,-1.6510822725868368,-7.138864099696391,176.124,0.42937439999170124,6
5.24359259074923,8.584856838382349,-45.15542770588663,36.894744739123816,5.015457009461352,-2.5318499390020586,-8.051373532828045,176.128,0.4333743999916919,6
5.867641043128066,9.334091869374566,-46.60419983008392,36.51821752393894,5.000528120895496,-2.431821607745366,-7.684457119507769,176.132,0.437374399991711,6
6.096228813817606,7.817547930499345,-46.43936737896711,37.52975177458566,2.886207635647772,-1.6354676233781669,-6.254901152205088,176.136,0.4413743999917017,6
5.381502024679186,5.831877543811849,-45.1889698170532,39.25126332303741,0.8644236591654244,-1.2126107470074294,-4.9274859866332354,176.14,0.44537439999169237,6
3.855412512294763,5.571408116518879,-44.316975218392614,40.563345571685325,0.9369137745839572,-1.9467253278272365,-4.66337942886306,176.144,0.44937439999171147,6
2.3939958631239335,7.282528888032881,-44.85676848974843,40.97556866626474,2.785623016520148,-3.4329966935961953,-5.147951250597065,176.148,0.45337439999170215,6
2.0220054100248106,8.754859948162816,-46.47743946697112,41.07568257605294,3.816396567482157,-4.2736340869954415,-4.917870947756133,176.152,0.4573743999916928,6
3.134271561465672,7.287593321202099,-47.854032589790855,41.89966075629341,1.4783993266509963,-3.2677714591067337,-2.6781209167145517,176.156,0.4613743999917119,6
5.211214868130429,2.2985405190543813,-47.945366312591425,43.835029960594525,-4.2963899528063925,-0.5042048647935445,1.4011757824120583,176.16,0.4653743999917026,6
7.2785624604680175,-3.9823598837971264,-46.91753649467626,46.15254528140645,-10.900568023698566,2.6899309454881393,5.679425714809375,176.164,0.4693743999916933,6
8.687680833381958,-8.468672349490577,-45.844734509017194,47.65441201635742,-15.34370104043316,4.912180640942035,8.402834408259533,176.168,0.4733743999917124,6
9.510882085644727,-9.953142522497197,-45.55931142218068,47.8212105580769,-16.855936489449363,5.855704444197776,9.180593346207852,176.172,0.47737439999170306,6
10.23118670146144,-9.982171052095698,-45.849398612998506,47.336227934169244,-17.327214557957664,6.385492699860425,9.205876887560782,176.176,0.48137439999169374,6
11.08627507296682,-11.07072775936164,-45.79707265189782,47.46664697366207,-19.222140103251824,7.495612719745532,10.041405748136867,176.18,0.48537439999171283,6
11.73612906283231,-14.05862488995995,-44.86318501802593,48.883999348198905,-23.035190598327937,9.202410494376416,12.134461600906192,176.184,0.4893743999917035,6
11.566694576990955,-17.169743745595348,-43.582358021010656,51.02459767480868,-26.69930671913408,10.441958632735437,14.418157601205037,176.188,0.4933743999916942,6
10.292418246227362,-17.577893394459032,-43.16201736692529,52.547562900699866,-27.379752909491433,10.014168611202566,15.26551391274598,176.192,0.4973743999917133,6
8.242344554245102,-13.86922248978725,-44.39423269813707,52.42089765411388,-23.838151822454094,7.617881905351927,13.820482896667523,176.196,0.501374399991704,6
6.075707052695283,-7.123045997691619,-46.939890102679726,50.65803434529897,-17.23570696877634,4.0339173465961675,10.530984324557304,176.2,0.5053743999916946,6
4.27116036174749,0.11184275423383748,-49.62107914982265,48.156333155803836,-9.968967830543995,0.4345640856086627,6.616146622972845,176.204,0.5093743999917137,6
2.9285827331657655,5.6686897606372,-51.36406181346928,45.93875180212422,-3.9673444326789222,-2.387848312662352,3.183230262883388,176.208,0.5133743999917044,6
2.0222705090207964,8.733312105896973,-51.892732574802004,44.527611881504235,-0.010278819923559005,-4.184708953142462,0.8045258514460356,176.212,0.5173743999916951,6
1.7117993709931254,9.509887405410202,-51.647842099921554,43.87746897080236,1.7983909066735957,-4.907448256344716,-0.342256297612991,176.216,0.5213743999917142,6
2.2601433214856512,8.515067039373164,-51.20548029830465,43.70341524013086,1.475275926800292,-4.484783601374229,-0.26363762811105135,176.22,0.5253743999917049,6
3.604318526534851,6.4055470622733015,-50.846194815982585,43.7832522481919,-0.6880885754631645,-3.047966221024088,0.7891317754698176,176.224,0.5293743999916956,6
5.112337573041811,4.150447957668801,-50.59103736981404,44.029789189826104,-3.6984098197045276,-1.227440156412726,2.2243126253945946,176.228,0.5333743999917147,6
5.951528438155168,2.7404921004238836,-50.45436897550705,44.444796138008044,-6.142687249585248,0.06679896351281471,3.3934405849923994,176.232,0.5373743999917053,6
5.837531510096435,2.3131655714477946,-50.508459019738204,45.102056403632304,-7.292256527882359,0.379490179621574,4.168471882822471,176.236,0.541374399991696,6
5.417356695881748,1.6758319810805453,-50.7078505843199,46.11801363330178,-7.90157847850525,0.22917967257057098,5.169047079990532,176.24,0.5453743999917151,6
5.77451032689463,-0.80483170384229,-50.792934303087,47.495533210828675,-9.555555166866768,0.7128504286735258,7.170427207399262,176.244,0.5493743999917058,6
7.383305224018077,-5.382018268083552,-50.51612152568323,48.9149753624316,-12.872786694864134,2.3831555544116276,10.089490347769642,176.248,0.5533743999916965,6
9.46806883563977,-9.934416450722802,-50.00309074579685,49.74399418391442,-16.297332290912063,4.441634550098482,12.581141917779066,176.252,0.5573743999917156,6
10.462902198281046,-11.158625575253273,-49.80316432379644,49.416950490405654,-16.947565932486736,5.159414918909045,12.870088223940732,176.256,0.5613743999917062,6
9.289266743580567,-7.292714946993194,-50.44627878701177,47.94244177790736,-13.081435061620274,3.327585114679803,10.261135159457538,176.26,0.5653743999916969,6
6.371117203214023,-0.014940845922692483,-51.86931273799473,46.05744084400196,-6.017293004040299,-0.508590448341886,5.981578989083654,176.264,0.569374399991716,6
3.46367018787205,6.394803759959161,-53.31132604413673,44.78723027113349,0.3952510137044462,-4.2109675182596655,2.481338329727272,176.268,0.5733743999917067,6
2.377118572985822,8.180918415870943,-53.893358340912314,44.71380271547366,2.5387695050848555,-5.594029901050948,1.6767790325480043,176.272,0.5773743999916974,6
3.6332838422609353,4.962376195445483,-53.41783203520767,45.56297491463047,-0.2273776580966618,-4.1001676789041115,3.5867424198715807,176.276,0.5813743999917165,6
6.146781179600738,-0.10534877085745717,-52.61703058697497,46.45962561277183,-5.145677916932122,-1.1961733833209034,6.457823865712915,176.28,0.5853743999917072,6
8.140930741718586,-2.9576225162866483,-52.51252347077428,46.61173929463379,-8.286104826327021,0.8354401681905517,8.168140608845041,176.284,0.5893743999916978,6
8.486832993634678,-1.7710829576382083,-53.3820018696354,45.83739771554633,-7.52765426000902,0.6811823838608527,7.675325994240781,176.288,0.5933743999917169,6
7.372453486924888,1.9525687338351496,-54.297112221925204,44.5552831630178,-3.88243100039044,-1.1204505460344925,5.419688384572323,176.292,0.5973743999917076,6
5.858571751145217,5.058354178398867,-53.78970305258686,43.36934361153294,-0.26378328758789654,-2.8614946430709454,2.628711442168708,176.296,0.6013743999916983,6
4.841510036588518,5.506826878855161,-51.194831061969786,42.678274922064055,1.0561735613755625,-3.2346401020355904,0.3466857651221065,176.3,0.6053743999917174,6
4.378553534608149,3.817452667965334,-47.487656371538684,42.5915556677616,0.09824892013496218,-2.395859772858377,-1.0022946460729525,176.304,0.6093743999917081,6
3.9130313162871704,2.098115976559412,-44.71796809853408,43.07406483456334,-1.3452187759654888,-1.6171989118262815,-1.404826341084043,176.308,0.6133743999916987,6
3.086577896935238,1.7157807105048977,-44.33206500321649,44.068596692728825,-1.7755007203201736,-1.8862623950024584,-0.8771271816298282,176.312,0.6173743999917178,6
2.310023932552567,1.7708330286568559,-45.769604100125655,45.481247902802735,-1.6742886053184323,-2.7534548835204435,0.6352427249523849,176.316,0.6213743999917085,6
2.5149384500583296,-0.23614636046751364,-46.68171464823055,47.12711834623157,-3.2440713763044338,-2.5417122846674176,3.0615878733800437,176.32,0.6253743999916992,6
4.277554204376914,-6.076229934728056,-44.80883214138852,48.760861542261104,-8.321832943554057,0.15431873227446435,6.014160540758176,176.324,0.6293743999917183,6
7.106423364148419,-14.788896652166153,-40.034185690367096,50.16990285055435,-16.229516261334556,4.946887993064381,8.829384396100682,176.328,0.633374399991709,6
9.585621665386144,-22.80324018039393,-34.78745774220797,51.215312538700374,-23.54809409262855,9.525850548010114,10.81200726313384,176.332,0.6373743999916996,6
10.347311175670571,-26.30007103431806,-32.26811547424533,51.794563324129925,-26.32294270538441,11.230234633938226,11.519020080209085,176.336,0.6413743999917187,6
9.126173761257743,-24.08467401944284,-33.8584795526601,51.83692824584716,-23.1463622070998,9.155096548420929,10.97131722367692,176.34,0.6453743999917094,6
7.042347916726756,-18.715167872778338,-37.906156140736975,51.41304557124362,-16.63081535745984,5.059063850923674,9.737682032081123,176.344,0.6493743999917001,6
5.861855511443133,-14.898569279945827,-40.959368031483216,50.84999239073526,-11.887463189202409,2.2335340352468376,8.800018563206256,176.348,0.6533743999917192,6
6.787371072973264,-16.26601782136133,-40.441287619299054,50.637839120321075,-12.984968298344116,3.1509518501589304,9.116111695551275,176.352,0.6573743999917099,6
9.675849514076244,-22.907170522773836,-36.52045017567823,51.08342408795806,-20.057106320427923,7.722897863843295,11.002555553002415,176.356,0.6613743999917006,6
13.211714079841656,-31.459203982381283,-31.68729490480252,51.978635258967316,-29.287040530128948,13.494252023418689,13.748938055085109,176.36,0.6653743999917197,6
15.830765387316799,-37.58854297916422,-28.57515801963145,52.650810324621794,-35.73810423434631,17.522792923248478,15.897436597954924,176.364,0.6693743999917103,6
16.694385420749672,-38.95745215606999,-27.999105451186452,52.470007533528666,-36.805800857126705,18.40705251442609,16.19091299567872,176.368,0.673374399991701,6
16.08996825880261,-36.57756481989292,-28.77237236747473,51.436701555966835,-33.735454062369875,16.975621822652805,14.583099612315293,176.372,0.6773743999917201,6
15.115702620941855,-33.820104799050476,-29.121137113928796,50.3151608391357,-30.334604565330157,15.362227393830823,12.482755624401067,176.376,0.6813743999917108,6
14.96389363494612,-34.05326062607585,-28.172736872320908,50.11947882520611,-30.16628730012398,15.422111064227398,11.886801274141126,176.38,0.6853743999917015,6
16.259532174585594,-38.612407868411154,-26.23604071357499,51.32482542365199,-34.37842547438401,17.702927422848695,13.939589035283879,176.384,0.6893743999916921,6
18.77344907084988,-46.2634359467449,-23.982213994195504,53.45035541019718,-41.456144183984165,21.47144092706046,18.006548716817054,176.388,0.6933743999917112,6
21.60414034690406,-54.19181648364393,-21.66228359167213,55.37825210615822,-48.60745771612388,25.432538439466047,22.046626898911608,176.392,0.6973743999917019,6
23.72095409444316,-59.72028780200649,-19.192004782717444,56.17226766960364,-53.54757542401924,28.484711668256736,24.081934576439625,176.396,0.7013743999916926,6
24.587682114296786,-61.762233027443756,-16.795731256086846,55.75429208966576,-55.589353620954945,30.13876758540042,23.666576115122577,176.4,0.7053743999917117,6
24.48601186569431,-61.27625862074225,-15.252250970780395,54.91936430588749,-55.65679983228521,30.58265744700892,22.1972758052171,176.404,0.7093743999917024,6
24.272818217030817,-60.481744461791116,-15.306164362243853,54.697370502229376,-55.43936563962386,30.47215840506208,21.78492733933655,176.408,0.713374399991693,6
24.683298181752182,-61.251882479535006,-16.8451428093641,55.5675867732185,-56.20807034270517,30.501411538195985,23.552799138437603,176.412,0.7173743999917122,6
25.698560841741852,-63.71286938411692,-18.796511693141724,57.12343443866057,-57.95401456673275,30.919910734919835,26.72148962866914,176.416,0.7213743999917028,6
26.532133887516064,-66.13818835202144,-19.96269204489991,58.42544877654821,-59.43777027141807,31.339523074876894,29.24154492939827,176.42,0.7253743999916935,6
26.30515377796954,-66.3781520590228,-20.008672309054056,58.755487899805175,-59.22852146339156,31.076168841407124,29.478535312286574,176.424,0.7293743999917126,6
24.843079234396193,-63.75657990258723,-19.63997238623041,58.18202735538206,-56.996533093132726,29.80879270710007,27.559186085071996,176.428,0.7333743999917033,6
22.859038092734615,-59.77255694905697,-19.842714813228266,57.490501910024086,-53.92004349927728,27.94681342078551,25.238961838018305,176.432,0.737374399991694,6
21.335191327981956,-56.87071887410805,-20.981548688711072,57.53112235632736,-51.71688861909128,26.29828193447717,24.404560563123923,176.436,0.7413743999917131,6
20.699950370130946,-56.359835226038,-22.594108199487454,58.51961636949633,-51.14535383758775,25.347673943859295,25.53205657962663,176.44,0.7453743999917037,6
20.62833597000645,-57.51206073645409,-23.914466782429567,59.89104124697356,-51.5136797444226,24.936836933218945,27.483993113107296,176.444,0.7493743999916944,6
20.664378962765422,-58.795672498399746,-24.448863147327668,60.84705269695817,-51.83208325272487,24.75737430104318,28.80781293768551,176.448,0.7533743999917135,6
20.968158240083774,-59.940312138986094,-24.071348917344192,61.101425449320544,-52.41394227278316,25.100075653895093,29.255943985814042,176.452,0.7573743999917042,6
22.27774579922895,-62.424963254750104,-22.825163809153775,61.09594575508135,-54.925306430393654,26.833682984807126,29.968058955180148,176.456,0.7613743999916949,6
24.967392343102663,-67.4577317841758,-20.96412837788523,61.42150824815189,-60.2986466564212,30.30594856361302,32.02565766361468,176.46,0.765374399991714,6
28.136010555838176,-73.36723725411984,-19.291870116526585,61.984199121616946,-66.43827034355633,34.186818806467464,34.79034923028017,176.464,0.7693743999917046,6
29.844631640243374,-75.55799885579816,-19.173647058377814,61.8271409163914,-68.56633627550437,35.74863051905703,35.87757911398854,176.468,0.7733743999916953,6
28.59527611912532,-70.05751908624752,-21.690107077725546,59.98022610140857,-62.90221573873904,32.90304793010969,33.17129175206852,176.472,0.7773743999917144,6
24.820384081723315,-57.86934388501027,-26.394045570393875,56.65397711111606,-50.801682863109534,26.414185533793123,27.176525591881166,176.476,0.7813743999917051,6
20.88823976878727,-45.691717635582236,-30.962518389749338,53.54291792982778,-39.12572639144488,20.035412184551518,21.313392533609886,176.48,0.7853743999916958,6
19.35416964427825,-41.29166504141759,-32.56650028966601,52.65011355545045,-35.43803393857514,17.886955777335515,19.404960292594513,176.484,0.7893743999917149,6
20.851889538567377,-46.89427450687877,-30.1646580509994,54.45241121209638,-41.533137603521695,21.004491710464713,22.2832777002714,176.488,0.7933743999917056,6
23.51757090523731,-56.53327417502353,-25.709928176216472,57.082799901911535,-51.10921591527981,26.14422258664597,26.607824872724986,176.492,0.7973743999916962,6
24.571492202277284,-60.41718685865987,-22.874427320646525,57.536154411212735,-54.36520852068046,28.23832717454249,27.310848911954334,176.496,0.8013743999917153,6
22.732953451689603,-53.12909076678406,-24.06817726432165,54.127482001979544,-46.16765085904722,24.64917031496142,21.85531312152235,176.5,0.805374399991706,6
19.329158764352112,-38.59678160960155,-28.27938141469095,48.13817225436505,-30.790827527109446,17.54884415294937,12.650815379735382,176.504,0.8093743999916967,6
17.09841351522915,-27.1934706004659,-31.78122387125041,43.09078278917427,-18.810367861223366,12.21803836628114,5.377827662255109,176.508,0.8133743999917158,6
17.77193712430007,-27.218948924203804,-31.26028362834117,42.09870582411393,-18.555459494229222,12.646361265302701,4.517687833057467,176.512,0.8173743999917065,6
20.617531244820892,-38.13261305374729,-26.667129583142298,45.47529805497727,-29.44697330638696,18.265111479246112,9.88877516423227,176.516,0.8213743999916971,6
23.216040814475882,-51.41822731564615,-21.244746354136794,50.62441161626773,-42.93515999042952,24.642718670351,17.114962559117828,176.52,0.8253743999917162,6
23.68060197826449,-58.11320593472468,-18.70970192228744,54.25437212062178,-49.9819028181386,27.40690390182075,21.4629326744437,176.524,0.8293743999917069,6
22.253187432521926,-56.14805042435709,-20.1265523265702,54.94835315361119,-48.32750408490437,25.823615059307212,21.576951190391327,176.528,0.8333743999916976,6
20.885952222011344,-51.135712817742785,-23.226652132914957,53.91767147264571,-43.34422545850026,22.95427628092033,19.94869043358062,176.532,0.8373743999917167,6
21.336550669290332,-50.49199388329807,-24.61336706010585,53.49956145503694,-42.373870430207404,22.562577288495664,20.08054196078838,176.536,0.8413743999917074,6
23.62417538018144,-56.74228697923195,-22.693058323947835,54.9680999447397,-48.205038972818194,25.819049137343693,23.229059813733137,176.54,0.8453743999916981,6
26.203619790718445,-66.03931650630635,-18.71256710646362,57.651272036686755,-57.482556988627834,30.71441122439956,27.665137549593023,176.544,0.8493743999917172,6
27.495079566403593,-72.50715026133628,-15.262832955500308,59.917160940674236,-64.6679144231487,34.29349516925491,30.73216196365253,176.548,0.8533743999917078,6
27.18356273350405,-73.5744000683726,-13.97441633802945,60.80393199579769,-67.01447905511405,35.22546954584329,31.350331186371037,176.552,0.8573743999916985,6
26.117468759186583,-71.18701343185012,-14.599646471590875,60.64941665616104,-65.79560019762488,34.29703048433323,30.518344201385027,176.556,0.8613743999917176,6
25.155691177109603,-68.50815475212661,-15.986741391250765,60.29569272289526,-63.44510921606725,32.822777803341765,29.665843656097998,176.56,0.8653743999917083,6
24.33233052745089,-66.30058879143952,-17.501875049870655,59.944213223364734,-60.47249007775671,31.08105711789434,28.91735305035692,176.564,0.869374399991699,6
23.217455537039115,-62.99713292817119,-19.255433862013653,58.98434166977091,-55.71994552539432,28.55821118486714,27.212503923902016,176.568,0.8733743999917181,6
21.94500528240659,-58.02147692828154,-21.09023375418347,56.95200981827714,-49.37677075370763,25.533060878981058,24.058405456507877,176.572,0.8773743999917087,6
21.593250651854927,-54.15978390757919,-21.82931239261124,54.49256680429544,-44.826371033550814,23.88712796075217,20.84252191683869,176.576,0.8813743999916994,6
23.294987055341792,-55.758958467975646,-20.028935895088512,53.159884676076544,-46.534167434022734,25.80694800929577,20.060242056372775,176.58,0.8853743999917185,6
26.89573042682553,-64.17732482257483,-15.702336859481889,54.106210229009534,-55.594894799803264,31.435347044456847,23.037268781568088,176.584,0.8893743999917092,6
30.617161500882112,-75.2397742009862,-11.137714881849286,56.91634364202129,-67.50263888523973,37.94295701820573,28.403665806966057,176.588,0.8933743999916999,6
32.27919006381307,-81.81104367347946,-9.585519801697826,59.7749540580539,-74.92160192049856,41.3179139793115,32.94610729449736,176.592,0.897374399991719,6
31.06109048386504,-79.54426970423829,-12.687048945646978,60.89137398269482,-73.38118063910811,39.50306451897603,34.15697030345746,176.596,0.9013743999917097,6
28.153243312490186,-70.5302213055912,-18.933026339851633,59.9067692895889,-64.79061912172091,34.04953740908305,32.14431675600158,176.6,0.9053743999917003,6
25.654910811951645,-61.39794439632111,-24.666734528660776,58.03870472350231,-55.56572294394994,28.737201191243695,29.199585142234174,176.604,0.9093743999917194,6
24.744027001933357,-57.62462541810557,-26.86168860545754,56.906583695082354,-51.14523767258914,26.417931514175756,27.56300948496078,176.608,0.9133743999917101,6
24.825857586402936,-59.27459554583816,-25.304536364077588,57.15703918878297,-51.8840099484811,26.929674526335614,27.550570556875325,176.612,0.9173743999917008,6
24.38904216981926,-61.821408361965524,-22.408567152712717,58.091381546666554,-53.75497967950786,27.807967230063767,27.69656424763653,176.616,0.9213743999917199,6
22.646486684701824,-60.84257234260171,-21.030998256263818,58.50492359226384,-52.703625942195835,26.871273882907165,26.554512381188538,176.62,0.9253743999917106,6
20.345457821099497,-56.010919279457156,-22.3005027393564,57.87394551702296,-48.37963475069772,24.17024489101953,24.30140854036926,176.624,0.9293743999917012,6
19.02929717039054,-50.949112707184945,-25.163636671762752,56.82329183052282,-44.05772389591215,21.66281882724798,22.65506544669851,176.628,0.9333743999916919,6
19.564533828654696,-49.63456640298575,-27.648924097601224,56.5397449212496,-43.3676344614894,21.24010686429146,23.306739347880644,176.632,0.937374399991711,6
21.383784675834548,-52.97971956005031,-28.46569083987021,57.71204510940254,-47.140664441284365,23.105723205912945,26.384521850054863,176.636,0.9413743999917017,6
23.084477246312,-58.45122139427829,-27.651174381766605,59.896901925118534,-52.99038609934306,25.846333726366463,30.265068977590957,176.64,0.9453743999916924,6
23.676058851749534,-62.44298419545927,-26.121666754971752,61.78140486183795,-57.41635876340798,27.773158780432674,32.75038721981887,176.644,0.9493743999917115,6
23.248230239197703,-62.89701735434756,-24.869801910553097,62.10016906272635,-58.23537780369527,28.1102339926607,32.5435637740112,176.648,0.9533743999917021,6
22.561395307788157,-60.1707879037933,-24.463933222150693,60.53349854766343,-55.558581800462065,27.147161622117785,29.951247448836696,176.652,0.9573743999916928,6
22.174186360856005,-56.207186346868106,-24.900574952902026,57.984924989137724,-51.265431574115986,25.676835068880905,26.537246455011488,176.656,0.9613743999917119,6
22.061046768269048,-53.30101248554851,-25.59377943584526,56.06369070704774,-47.94098184866487,24.530873691547498,24.18016260319435,176.66,0.9653743999917026,6
