Fz,FC3,FC5,F3,FC4,FCz,Cz,Time,t_rel,idx
20.304396727954522,-56.183686779738295,-25.08350429476121,58.531287241587464,-45.42953997946881,22.21818327896833,25.642863805457992,189.408,-1.9960139000862966,7
21.877711781483445,-60.138151751437725,-24.727828641031866,59.66624282897635,-48.901199998770416,24.03999194139064,28.183233839389594,189.412,-1.9920139000862775,7
22.51381655472717,-60.6837678395301,-25.782358978135115,59.910565022678334,-49.46375038916729,24.280252471474327,29.225243157952658,189.416,-1.9880139000862869,7
22.846237442676667,-61.34963595227742,-26.22086987832524,60.3047132266889,-50.229762722281805,24.56743186296921,30.081886020549693,189.42,-1.9840139000862962,7
23.45608402245843,-64.63821262640985,-24.78460905595602,61.48556628151576,-53.23026622779452,26.017085287578407,31.694352318607823,189.424,-1.980013900086277,7
24.418525935793127,-69.81517561987923,-22.087310272207475,63.04209339729125,-57.55586861857967,28.257655769708823,33.74007940787318,189.428,-1.9760139000862864,7
25.382727125216523,-73.79205511398635,-20.05882973706004,63.89186245073498,-60.36048077470942,29.89400686986609,35.04276917993824,189.432,-1.9720139000862957,7
25.994800099004696,-74.12843114718554,-20.259319244520608,63.34571766088325,-59.67204330064694,29.879193998003522,34.840081934461644,189.436,-1.9680139000862766,7
26.205694825546704,-71.32448993834299,-22.526627091458696,61.855587331673114,-56.33666348038816,28.490095463079513,33.63640288989052,189.44,-1.964013900086286,7
26.21774119327519,-68.40661349105636,-25.051979524606043,60.72115344312093,-53.3558394379214,27.073308247640085,32.8022295695476,189.444,-1.9600139000862953,7
26.235986072646924,-68.39818592509795,-25.73527924434688,61.015808461203356,-53.379838382903415,26.914860662027284,33.346648356470695,189.448,-1.9560139000862762,7
26.352404708829276,-72.08540674755258,-23.680334441609382,62.72905414050568,-56.744413886186734,28.323897986076283,35.10479823993746,189.452,-1.9520139000862855,7
26.65936473127318,-77.90851574210076,-19.728286087560964,64.89049480334683,-61.69030861894028,30.66177570601888,37.11547520796309,189.456,-1.9480139000862948,7
27.3633599751205,-83.62766076905773,-15.797783912419758,66.47858158832483,-66.1832367742141,33.06281831296043,38.70392157928583,189.46,-1.9440139000862757,7
28.647593884543493,-87.89889954735476,-13.662987667055717,67.19123209380055,-69.35161208067632,35.01687776592726,40.057795550815484,189.464,-1.940013900086285,7
30.355044779917705,-90.42818243220097,-14.012761882930356,67.37884123723876,-71.29508080151275,36.33244658687648,41.669692512611135,189.468,-1.9360139000862944,7
31.861371726293335,-91.12459632916953,-16.24115959055089,67.34839984799041,-71.93231261712005,36.78296118068976,43.305335781866994,189.472,-1.9320139000862753,7
32.40240749951008,-89.65633616685196,-18.908163029133558,66.88202954062517,-70.53223499160777,36.05651374844255,43.75578339901551,189.476,-1.9280139000862846,7
31.667693759963,-86.05420529156059,-20.537922319971976,65.52499697754757,-66.6169807865155,34.16518124222329,41.85123641831421,189.48,-1.924013900086294,7
30.13315686879277,-81.52936230643301,-20.3721898257753,63.31934243232553,-61.18946962162685,31.810469457671786,37.82805299504506,189.484,-1.9200139000862748,7
28.77496167375397,-78.24852388334665,-18.721563857837946,61.13839778724695,-56.704296693273555,30.143675244611664,33.61734972884555,189.488,-1.9160139000862841,7
28.36536282879538,-77.95044577614802,-16.679452213357255,60.17090856777388,-55.49032460478065,30.002323946593854,31.581627251122786,189.492,-1.9120139000862935,7
28.958257684394248,-80.68407994429327,-15.300230666364877,60.99213260819824,-58.03977092040356,31.328605049763485,32.7450861887057,189.496,-1.9080139000862744,7
30.00661712904209,-84.97332583207077,-14.780123596599427,63.106067976811026,-62.8222888648608,33.356442045871674,36.106611141806205,189.5,-1.9040139000862837,7
30.96060363746524,-89.26968901652997,-14.308679461574643,65.38703285051568,-67.77317485400461,35.38173159879098,39.622175245337324,189.504,-1.900013900086293,7
31.75444572104942,-93.21063963777397,-12.792745600070177,66.97773964277636,-71.9525014790191,37.33343527540828,41.89026607762916,189.508,-1.896013900086274,7
32.734359323722266,-97.44625782310158,-9.87892934951001,67.81032090380805,-75.81886602287159,39.595714833562965,43.00365813438989,189.512,-1.8920139000862832,7
34.15447372415786,-102.36999530048571,-6.345890989511346,68.36380315829597,-80.09807552097081,42.343737144258405,43.95194778425563,189.516,-1.8880139000862926,7
35.79078437707093,-107.2574768751293,-3.457581907393114,69.03579697069131,-84.64864875555755,45.16198983452041,45.37513635579728,189.52,-1.8840139000862735,7
37.0787084814261,-110.7992104160053,-1.8594419317944302,69.79145369553565,-88.53653120805205,47.36812979426627,46.95689158462378,189.524,-1.8800139000862828,7
37.63276841976815,-112.40748595943904,-1.0884584037001606,70.3376907506768,-91.05949850881231,48.66419802172262,47.9207856797839,189.528,-1.876013900086292,7
37.619918821430595,-112.79386988141977,-0.19336708528471172,70.48799196731282,-92.42006391864118,49.375901610537156,47.9234884860651,189.532,-1.872013900086273,7
37.61165895218393,-113.14262711954595,1.1619766435293273,70.2747047765743,-93.27068108841763,50.014689641815686,47.350278193860305,189.536,-1.8680139000862823,7
38.059292385951615,-113.80628760223483,2.2631786394856177,69.77344263918017,-93.75637970683538,50.66415292688375,46.80260071756902,189.54,-1.8640139000862916,7
38.892416054455246,-114.00331746378377,2.0607894710354344,68.97951239672179,-93.28413530278752,50.88475785354674,46.46997699081208,189.544,-1.8600139000862725,7
39.59672970755925,-112.86198895325487,0.3087309227135729,67.95989202886693,-91.34873322278278,50.23545161753884,46.109917899359026,189.548,-1.8560139000862819,7
39.66033641472698,-110.60428275265592,-2.0817772993260015,67.06620308226934,-88.41549137907546,48.8075736206099,45.567438313451156,189.552,-1.8520139000862912,7
38.962668899065534,-108.46790532520487,-3.8779452632314455,66.81445541962857,-85.70171335540854,47.158084244599145,45.11235538055161,189.556,-1.848013900086272,7
37.79486464784404,-107.37831012726626,-4.688677757348287,67.39414603974082,-83.95675108324654,45.724061088465916,45.11066719181028,189.56,-1.8440139000862814,7
36.574861691204724,-106.82996415033573,-5.222888456454746,68.27714461742202,-82.57930754534507,44.39940099942383,45.38075284408497,189.564,-1.8400139000862907,7
35.56100541752441,-105.26737641518996,-6.374681717745327,68.4320019799741,-80.14914980675451,42.76293708503959,45.035263457151665,189.568,-1.8360139000862716,7
34.77912480979467,-101.62421605270706,-8.150641801390485,67.08646052175676,-75.90538651825617,40.68103806473561,43.13362097606666,189.572,-1.832013900086281,7
34.12523319170341,-96.39832157758471,-9.644016697595882,64.3863485010097,-70.60635840747463,38.559871184781834,39.57724380516027,189.576,-1.8280139000862903,7
33.4806720491033,-91.15681818684163,-10.09970589182131,61.330753657350876,-65.84580405165468,36.93325255816883,35.357649865694604,189.58,-1.8240139000862712,7
32.76425214883672,-87.10473070730532,-9.851813504735087,59.0333113806763,-62.60490847167613,35.87981544849374,31.88407370570977,189.584,-1.8200139000862805,7
31.972206341017237,-84.34134912855686,-9.986739781538779,57.98913987710841,-60.659742205823605,35.00807119934928,30.018413698444302,189.588,-1.8160139000862898,7
31.2393797466605,-82.53775148721643,-11.000522327093577,57.9689729746102,-59.442767065799984,34.089306478787066,29.68338168005221,189.592,-1.8120139000862707,7
30.838035058018612,-82.02461069405426,-11.95530967998578,58.49800166052432,-59.21194131229748,33.58485853020132,30.27096643759325,189.596,-1.80801390008628,7
31.01611579619846,-83.73846787079096,-11.25094993310086,59.32394758727524,-60.95163451422878,34.31636535454724,31.284623580099655,189.6,-1.8040139000862894,7
31.745228110650466,-87.85346972059304,-8.390931988818979,60.404693909666925,-64.91560776922186,36.47324976952609,32.53683768879038,189.604,-1.8000139000862703,7
32.62115007974271,-92.68870316689943,-4.8732946687950065,61.56219650878309,-69.49173818504669,39.02789886964921,33.84249056256606,189.608,-1.7960139000862796,7
33.09139385620064,-95.50507580321998,-3.0455684473846385,62.342664180645315,-72.0131428942471,40.3770412969838,34.752687811021936,189.612,-1.792013900086289,7
32.877313058293055,-94.83225035070072,-3.858594229747881,62.35619039371012,-71.1021573434799,39.773408721731315,34.78608975019396,189.616,-1.7880139000862698,7
32.21403925268788,-92.06288893778155,-5.777708245509959,61.758759250423154,-68.24608779336263,38.14716599229339,33.9667204812497,189.62,-1.7840139000862791,7
31.643912419092423,-90.43305824393397,-6.143065597791955,61.2913085253102,-66.74474838238326,37.35678612677949,33.02886515292703,189.624,-1.7800139000862885,7
31.50865831399414,-92.03040392428613,-3.833876553075409,61.70774841791733,-68.70975026744327,38.43291016522105,32.92471384767229,189.628,-1.7760139000862978,7
31.59781375380598,-95.60548873453146,-0.6352345143278866,63.07313387689617,-72.88216052995351,40.4637358836354,33.988200264475296,189.632,-1.7720139000862787,7
31.29279970995085,-97.39899824246064,0.17978829650507933,64.59994934239185,-75.4347268892738,41.25122451817324,35.5099632647134,189.636,-1.768013900086288,7
30.089411996451275,-94.35580721511288,-3.1550038192798144,65.20895872231361,-73.12797565923782,39.192304169261995,36.14811180560359,189.64,-1.7640139000862973,7
28.029329102127505,-86.784934025896,-9.150089338563383,64.33864090328126,-65.96617845934362,34.66053344411966,34.872698374274634,189.644,-1.7600139000862782,7
25.668570435618655,-78.06361611635302,-14.257568975225787,62.331866640946615,-57.04419597762395,29.654483353931493,31.710460638706007,189.648,-1.7560139000862875,7
23.65112089731297,-71.81130697469948,-15.91239809335072,60.143816436155404,-49.96703262098437,26.132844981454088,27.762955374112114,189.652,-1.7520139000862969,7
22.298256117882104,-69.24112418819973,-14.576043781289197,58.68896093700502,-46.34245868130229,24.624667231828433,24.547742364075667,189.656,-1.7480139000862778,7
21.550954837826257,-68.96144391342058,-12.949800285676096,58.34765237596083,-45.42183131101056,24.288963744441887,23.14550455187827,189.66,-1.744013900086287,7
21.22951757085028,-68.98740743706445,-13.244697634947812,58.89923389673634,-45.6901708525925,24.125010295305803,23.66851416171233,189.664,-1.7400139000862964,7
21.295668384795423,-68.74906656315912,-15.152712405196144,59.78344113902148,-46.50523488298057,24.019368455507433,25.308535872011493,189.668,-1.7360139000862773,7
21.86772810330487,-69.27030899776783,-16.330300809595602,60.447983970520646,-48.292614953139704,24.678911346095262,26.89860134058235,189.672,-1.7320139000862866,7
23.023930009709233,-71.73188111842533,-14.73692152152933,60.6180494614789,-51.539229865153764,26.708729961145984,27.657323072774332,189.676,-1.728013900086296,7
24.617219085747482,-76.09455302088679,-10.52773023667063,60.41523899936149,-55.91983436792942,29.858210162600024,27.651449377777848,189.68,-1.7240139000862769,7
26.26408751995648,-81.0369735203857,-5.8535355826182265,60.269386016062754,-60.391498542678924,33.11363057891444,27.634903530749185,189.684,-1.7200139000862862,7
27.490350431051585,-84.95029669208505,-3.015535384709091,60.61793367583243,-63.88814073797723,35.40089196390716,28.344796743980165,189.688,-1.7160139000862955,7
27.924355210568585,-86.85912210508002,-2.822038562879844,61.55123218416935,-65.78423868541904,36.18208962592003,29.807722332720925,189.692,-1.7120139000862764,7
27.45879640379063,-86.60634651768758,-4.485741834025478,62.68887025896854,-65.87815882787314,35.544259118102815,31.27832139872419,189.696,-1.7080139000862857,7
26.334894740578786,-84.57810865895102,-6.757039536089271,63.44249070755367,-64.29940202344059,33.95357755212179,31.903587218226658,189.7,-1.704013900086295,7
25.076126401915197,-81.49079883613095,-8.959269415806123,63.471745216356204,-61.60769813438823,32.01402526799925,31.495869500054624,189.704,-1.700013900086276,7
24.2164992003013,-78.25932245629669,-11.047283011513086,62.917896395291116,-58.76103628826283,30.298653235592518,30.634592924887666,189.708,-1.6960139000862853,7
23.931132549376674,-75.63361960435091,-13.010858810659148,62.19080976304366,-56.57531736268548,29.127907172450254,29.969946292824954,189.712,-1.6920139000862946,7
23.866851802806508,-73.68296385361279,-14.529258780810054,61.53992727008665,-55.01564909255284,28.354721047116385,29.466371606966128,189.716,-1.6880139000862755,7
23.418093104411824,-71.7402494487978,-15.262924162290886,60.87192558460814,-53.202163812076066,27.460304762758366,28.455013971386418,189.72,-1.6840139000862848,7
22.316946775262362,-69.16251261977685,-15.30808268346136,60.00044689073956,-50.44396511521286,26.081075990511096,26.51609076193803,189.724,-1.6800139000862941,7
21.01951512529023,-66.28465533724912,-15.165732608647374,59.00796902113728,-47.35447719487626,24.547969340272683,24.229411654072567,189.728,-1.676013900086275,7
20.429780996129995,-64.42028876822255,-15.21729275595898,58.246688300105006,-45.66041977178482,23.786276622714443,22.83525537701688,189.732,-1.6720139000862844,7
21.083661691772683,-64.58678610778117,-15.3331403274637,57.921172140213685,-46.519238393572365,24.456656916477705,22.977674080353164,189.736,-1.6680139000862937,7
22.514138321724836,-66.12761627451712,-15.10239445887487,57.73504377781631,-48.92698830939018,26.08980219834571,23.818014744895326,189.74,-1.6640139000862746,7
23.482936735662204,-66.86290327014274,-14.430246676606288,57.098679305614226,-50.106767137773645,27.197580018623025,23.62072102462321,189.744,-1.660013900086284,7
23.002550694250246,-65.01036009619263,-13.780988103871065,55.788941101046575,-47.93654790371865,26.49412610294557,21.442278205539925,189.748,-1.6560139000862932,7
21.258926421703634,-61.13622565890286,-13.718999129580961,54.36498152908054,-43.208331482340895,24.1721293797157,18.26751894032482,189.752,-1.6520139000862741,7
19.51926128883572,-57.999839212505755,-14.221380521821294,53.784423228968464,-39.291527932355486,21.918652083120282,16.290411065758068,189.756,-1.6480139000862835,7
19.00446134426419,-58.06359975520145,-14.57835289500457,54.48236852973066,-39.150768614451096,21.45693528363647,16.848956107025806,189.76,-1.6440139000862928,7
19.720288175868518,-60.89077090022155,-14.129338284474095,55.82758890580959,-42.40687217582234,22.877268410593796,19.001835868246072,189.764,-1.6400139000862737,7
20.368182409546655,-63.06867199000162,-13.16205437098205,56.592834338367844,-45.36336044677301,24.36948970419305,20.263580355649104,189.768,-1.636013900086283,7
19.496186170074626,-61.015709389935466,-13.006204169898792,56.064154967584805,-44.18710074970279,23.729203933602154,18.919469238275457,189.772,-1.6320139000862923,7
16.872833545993675,-54.19331823940531,-15.051975646466005,54.70104864244584,-38.339804754880426,20.318931829894602,15.692284622417613,189.776,-1.6280139000862732,7
13.806956700063356,-45.71096227871671,-19.472637479082046,53.648225993681,-31.026747526295924,15.682663234446524,13.072501355903801,189.78,-1.6240139000862825,7
12.08068859897131,-39.721405661604116,-24.80434537910247,53.56000490835926,-26.27288218168024,12.247433222986285,12.910506492069992,189.784,-1.6200139000862919,7
12.440708623993268,-38.02756863539368,-28.841601358752566,53.93900729292245,-25.459000861328516,11.319005007029888,14.629449931529166,189.788,-1.6160139000862728,7
13.999978886373466,-38.98843951831901,-30.166575532979802,53.69563132509648,-26.558749877965425,12.18359649424791,15.834558223546393,189.792,-1.612013900086282,7
15.059995196899987,-39.51029294824656,-29.080001215925037,52.36631774303557,-26.56363124658497,13.019091077884102,14.70852139293692,189.796,-1.6080139000862914,7
14.575341501032549,-37.98536567314919,-27.218242252665448,50.70270367709488,-24.4905608970686,12.623383348823523,11.792740295932283,189.8,-1.6040139000862723,7
12.948279554052927,-35.366099685281384,-26.236498718962416,49.95953640259258,-22.008869649175576,11.321055853901644,9.382596242872225,189.804,-1.6000139000862816,7
11.514923522480295,-33.64317316924412,-26.65047713429947,50.57035474954623,-21.312273979842423,10.343079314787232,9.17756669657227,189.808,-1.596013900086291,7
11.281798366834618,-33.571887898881066,-27.6974751290929,51.58908411223566,-22.634259209481456,10.465025600274632,10.567714158110537,189.812,-1.5920139000862719,7
12.072521640951095,-33.97488165298413,-28.18509049133848,51.53160865351828,-23.95883896838426,11.268387839754311,11.246292978483192,189.816,-1.5880139000862812,7
12.7621675094858,-33.059820289156065,-27.536847335079468,49.80341567769342,-23.028344449405456,11.608209897903347,9.451218988558429,189.82,-1.5840139000862905,7
12.255756437758082,-30.08572686933734,-26.205763080562534,47.25099000647169,-19.38017507351101,10.645508025755484,5.519410553425627,189.824,-1.5800139000862714,7
10.283028354605776,-25.588140622129156,-25.237306466792287,45.2397016584536,-14.305834280828403,8.380669873990442,1.227881482700045,189.828,-1.5760139000862807,7
7.396561503759775,-20.174897943507254,-25.44807389401852,44.18431084284751,-8.998205652192402,5.3084796208830785,-2.2681744777721753,189.832,-1.57201390008629,7
4.356513958702318,-13.523511560466146,-26.904758127338877,43.06344333338808,-3.1002510824694895,1.763442889851734,-5.65487941166761,189.836,-1.568013900086271,7
1.5654713414576529,-4.863451473140995,-29.048783679927375,40.471119421185776,4.688804592030019,-2.274819741293289,-10.53834046031177,189.84,-1.5640139000862803,7
-0.9990403446886462,5.625126980677003,-31.26533740934723,36.16494886580311,14.681223312685386,-6.807627079457439,-17.39929432567218,189.844,-1.5600139000862896,7
-3.4830321876883157,16.278490504810097,-33.38741760653476,31.501786394053195,25.242489220933592,-11.469934394146525,-24.682381931427265,189.848,-1.5560139000862705,7
-5.927051570664193,25.208484647050494,-35.74766501495236,28.233625972122013,34.105335498570405,-15.747847701060323,-30.124881831066013,189.852,-1.5520139000862798,7
-8.340428555781239,32.22765642356124,-38.786350644362464,26.808271960947433,40.71910542118111,-19.571568352579348,-33.056686252966735,189.856,-1.5480139000862891,7
-10.886983325115715,39.32788559361675,-42.56292394575014,25.883737879921046,47.06758114095014,-23.55088824040329,-35.27840910321877,189.86,-1.54401390008627,7
-13.848579833756114,48.882808757946314,-46.562446661117335,23.61347203488623,55.79266225930845,-28.419397751448308,-39.4585188058192,189.864,-1.5400139000862794,7
-17.31150798044842,61.08854706651132,-49.94263242943131,19.5094069850954,67.25517824522403,-34.12070965951303,-46.47828222743794,189.868,-1.5360139000862887,7
-20.88760954025925,73.14175475990075,-52.03967306084371,15.080288385028975,78.46769956781412,-39.4736744007577,-54.288785710883154,189.872,-1.5320139000862696,7
-23.816644139283273,81.15827810474448,-52.778915311199235,12.593140379670938,85.20066265024144,-42.89767033303774,-59.45885135113658,189.876,-1.528013900086279,7
-25.443080954273412,83.24692485877836,-52.719486987386105,13.096085829109027,85.51229374340677,-43.65876077648364,-60.03397571315098,189.88,-1.5240139000862882,7
-25.679309985634095,81.00273782055906,-52.714531459948624,15.529415044691062,81.48346815361396,-42.5239905611259,-57.09778901215543,189.884,-1.5200139000862976,7
-25.05047086289385,78.11194548392795,-53.406126418666,17.69552250295568,77.53136173133157,-41.18830016637353,-53.6939322702818,189.888,-1.5160139000862785,7
-24.285136781701972,77.38508530290176,-54.85383884798182,18.117754208591776,76.8155252949656,-40.94109140622148,-52.238297770553835,189.892,-1.5120139000862878,7
-23.810309620193866,78.85020632220822,-56.49981121447277,17.07386189761091,78.93505674296622,-41.72343108003402,-52.825573048084664,189.896,-1.508013900086297,7
-23.558278609830435,80.38196612911385,-57.4838618425452,15.989488984122723,80.80175162770436,-42.35251460690387,-53.77855168166137,189.9,-1.504013900086278,7
-23.178937956806276,79.95599750279939,-57.141835906321056,15.958291242462781,79.62037542662604,-41.632684390123366,-53.58120591863747,189.904,-1.5000139000862873,7
-22.399343416371643,77.31397823510623,-55.42026802969291,16.86658007209113,75.14996264253092,-39.331306892751314,-52.179602610912376,189.908,-1.4960139000862966,7
-21.20760405403908,73.70171926051047,-52.961683534674606,17.839306716042497,69.39321839434128,-36.224148479536886,-50.54080830264363,189.912,-1.4920139000862775,7
-19.772977758998625,70.33220632808847,-50.77539650153357,18.358013957325262,64.42035295339521,-33.32158427865517,-49.240614699621545,189.916,-1.4880139000862869,7
-18.27405333570175,67.31477525034852,-49.66399990969174,18.815036153140277,60.64072911414583,-31.086430973253076,-47.74605629898805,189.92,-1.4840139000862962,7
-16.836498487032475,64.04889212468046,-49.78012957894489,19.970498689417806,57.08104241945914,-29.333846582767205,-45.14995858481284,189.924,-1.480013900086277,7
-15.596175908721616,60.44748637401525,-50.65312703448553,21.964696264900667,53.077169820192125,-27.76900170882745,-41.47104780707343,189.928,-1.4760139000862864,7
-14.737402255603893,57.536005166991245,-51.69369352400447,23.98103860351118,49.440906152707186,-26.518293467380644,-38.00856067622059,189.932,-1.4720139000862957,7
-14.393905258230278,56.70113248777267,-52.76509098999608,24.95091604830549,47.844065196079285,-26.086235125145464,-36.25088235878561,189.936,-1.4680139000862766,7
-14.483910639038555,58.283390763943366,-54.27742704107059,24.609645570828008,49.03411966631218,-26.779797835344255,-36.386020485630134,189.94,-1.464013900086286,7
-14.663028218733873,60.87728064384842,-56.62674678303563,23.853096219376376,51.65972328179621,-28.168733891877547,-36.93159125137395,189.944,-1.4600139000862953,7
-14.486866794677868,62.03930652943866,-59.429054531385646,24.03294338216162,52.88596320919215,-29.120794180648616,-35.92149761408027,189.948,-1.4560139000862762,7
-13.67180392594733,59.83939941170297,-61.32424262148982,25.84551539043454,50.31195470326414,-28.43888771672479,-32.561935241239674,189.952,-1.4520139000862855,7
-12.238847598030901,54.02109210567377,-60.745911861292,28.822132754196705,43.57805821821648,-25.617494079750454,-27.819029539013574,189.956,-1.4480139000862948,7
-10.429160065952496,45.96520231211609,-57.19199945119205,31.827589246332604,34.4152485072223,-21.15241094727713,-23.434469601249273,189.96,-1.4440139000862757,7
-8.487813273809394,37.65944485106848,-51.94191604800165,34.04790171598009,25.266000957539077,-16.20495057583015,-20.338667626946428,189.964,-1.440013900086285,7
-6.523341616329575,30.558562816284333,-47.47528550827772,35.57048300465345,17.71095032640264,-11.9076730511989,-17.9336959715342,189.968,-1.4360139000862944,7
-4.564040731164703,25.12233795245642,-45.90165975772789,37.109695000108275,11.903525514948155,-8.826811567483764,-14.84304641113646,189.972,-1.4320139000862753,7
-2.7352307413268986,21.182381832033638,-47.608571875629806,39.213049722893494,7.2430192980784165,-6.924253494682918,-10.370394741365903,189.976,-1.4280139000862846,7
-1.3570347133083196,18.66740354407916,-51.21754261745268,41.6791999794361,3.5048065046464796,-5.946489112497558,-5.33034358490316,189.98,-1.424013900086294,7
-0.8194953391448905,18.006089038344534,-54.83445828184273,43.65567682279905,1.3656058499062198,-5.830303543998715,-1.5431145460634486,189.984,-1.4200139000862748,7
-1.2833384839535673,19.79808690784018,-57.46342127572824,44.289652883672446,1.8264730832278928,-6.7180085355353185,-0.44944457952335787,189.988,-1.4160139000862841,7
-2.4255634131958335,23.920155660847218,-59.36118012667783,43.40618073859155,4.9636723370018165,-8.535446608547453,-1.967818588019436,189.992,-1.4120139000862935,7
-3.46071418373642,28.777831679904192,-61.14547893563933,41.734547269845756,9.05413009150524,-10.531425057102473,-4.428890864776929,189.996,-1.4080139000862744,7
-3.4973140737088237,31.51426111442444,-62.66157313458394,40.55249116418999,10.976105018527074,-11.317428204610245,-5.56654188423845,190.0,-1.4040139000862837,7
-2.044396531135342,29.417691772145574,-62.81681211216446,40.97515062327928,7.911085429775891,-9.592659522935596,-3.850059658965317,190.004,-1.400013900086293,7
0.6578352239152736,21.792977464434507,-60.613395638981245,43.294985422918195,-0.6747303030317814,-5.124742875414974,0.6670707061600586,190.008,-1.396013900086274,7
3.7230995325712763,10.932646886874302,-56.39273589411076,46.74965281720806,-12.218642387095493,0.7915661278951545,6.414412916657491,190.012,-1.3920139000862832,7
6.083807816246326,1.2185362835746152,-52.03417798915891,49.888061179119795,-22.216223257864197,5.88296560150592,11.177030366576485,190.016,-1.3880139000862926,7
7.032835154583155,-3.301650123763001,-49.79282406240338,51.378899223433145,-26.75698901541977,8.17622492223507,13.263503901334797,190.02,-1.3840139000862735,7
6.4999119819218665,-1.2842779507526463,-50.71429546486555,50.803658002143656,-24.777770885103376,7.12797700659675,12.344797310059313,190.024,-1.3800139000862828,7
4.946780517673068,5.239968663828682,-53.94664015272301,48.91496262273503,-18.5123525219695,3.825354498682582,9.531926371773181,190.028,-1.376013900086292,7
3.057554351436861,12.299290804333847,-57.45890543045855,47.14497802347768,-11.926730622774404,0.20207109577414736,6.681741778210434,190.032,-1.372013900086273,7
1.4906167599324418,16.39151490589539,-59.47783677971976,46.66485768812313,-8.351489824116491,-2.075024773542801,5.357362023428118,190.036,-1.3680139000862823,7
0.7803207867400902,16.203803088076835,-59.47172517450435,47.642346196152396,-8.909087480277941,-2.297067395611676,6.051409979424685,190.04,-1.3640139000862916,7
1.2530846407356397,12.756208110628961,-58.08105130252711,49.216465235115194,-12.488580968736256,-0.7334351825282213,8.07730946731184,190.044,-1.3600139000862725,7
2.834893077186402,8.336208339673172,-56.351285301623236,50.17762216652091,-16.829307189637287,1.7323214848544075,10.099547423025658,190.048,-1.3560139000862819,7
4.884923584605747,5.188316755960935,-55.04595788264601,49.82853136068386,-19.77754097753178,3.993848423029947,10.927878735897325,190.052,-1.3520139000862912,7
6.371410069948443,4.591182417369304,-54.45494986967747,48.413806590878245,-20.1546792048646,5.086300965131273,10.146929031214823,190.056,-1.348013900086272,7
6.497376652089832,6.390213912006462,-54.518022615323964,46.880766299330844,-18.207406251604827,4.632419065149861,8.324652938351806,190.06,-1.3440139000862814,7
5.387511073452491,8.972569257563034,-54.92072709000294,46.226511229544364,-15.63601220636433,3.2286830425215793,6.741464693285823,190.064,-1.3400139000862907,7
4.175640888620636,9.935949018742784,-55.13949963896896,46.90576990488172,-14.91118742231607,2.3109199454795966,6.722407303560329,190.068,-1.3360139000862716,7
4.201218890657537,7.56788684045762,-54.681219720835166,48.62214050163535,-17.749266284946554,3.228712277949975,8.81052749508127,190.072,-1.332013900086281,7
5.831869019286295,2.448870703401556,-53.55728946000436,50.52018671712862,-23.461031487731756,6.006037904461676,12.21135660345798,190.076,-1.3280139000862903,7
7.929015390796486,-2.1931870775546205,-52.57832891841515,51.60310389067,-28.59642603417559,8.860036107384921,14.975786641293984,190.08,-1.3240139000862712,7
8.572014345837845,-2.240080198692454,-52.97837727078273,51.18546462666776,-28.779694194321262,9.19860003400072,15.042072657290143,190.084,-1.3200139000862805,7
6.584254485644099,4.289765336181139,-55.440449614304136,49.23326719998965,-21.872031029101347,5.589360453716903,11.615833167873713,190.088,-1.3160139000862898,7
2.613874612165504,15.240254537237483,-59.30011453169142,46.45077682535771,-10.088225279751056,-0.846073038757215,5.92950687543904,190.092,-1.3120139000862707,7
-1.1932450970594621,25.23865639520239,-62.754793335811975,44.005005547484366,0.9216751944671848,-6.910074806357044,0.6927761020745717,190.096,-1.30801390008628,7
-2.7093951371364184,29.171889229093647,-64.09055644023378,42.940084592610845,5.693355744889122,-9.475038906412662,-1.5303390828107235,190.1,-1.3040139000862894,7
-1.2884848239706752,25.613786054534785,-62.958742288616854,43.579007811139036,2.593619478466357,-7.628476848504795,0.08929061695218597,190.104,-1.3000139000862703,7
1.985454116767803,17.495216834828685,-60.57405606926372,45.31909856488977,-5.369023757663749,-3.09554714660069,4.238857457041931,190.108,-1.2960139000862796,7
5.334034744848565,9.574924450290982,-58.61675560966741,47.021281711185964,-13.126872186663231,1.3162714470966421,8.497115442908513,190.112,-1.292013900086289,7
7.602220786452684,4.912283152570099,-57.798370261408685,47.76677730102297,-17.301988492895028,3.8446846493642766,10.974392864893716,190.116,-1.2880139000862698,7
8.773571119293205,3.192650676154654,-57.36996329525496,47.44860800136952,-18.107232405884513,4.716000464641082,11.34636543968103,190.12,-1.2840139000862791,7
9.47880436675174,1.9215227309026268,-55.98105348754959,46.76720988380442,-18.21144301393264,5.3532168322718094,10.671742687751655,190.124,-1.2800139000862885,7
10.20305216602558,-1.0029875463409308,-53.049270092780965,46.656249448055945,-20.027219835397023,6.84682788590432,10.373347974533084,190.128,-1.2760139000862978,7
10.98070289765124,-5.7147084600600175,-49.35941383361761,47.60253645024059,-23.92839244587538,9.139264018651389,11.280011373009799,190.132,-1.2720139000862787,7
11.68244876271959,-10.855091174666907,-46.37791760407986,49.374478265776716,-28.618245540850207,11.451182492946117,13.343144798154569,190.136,-1.268013900086288,7
12.363371686299262,-15.145670666011592,-44.98284651944704,51.3061772452054,-32.741084607601145,13.231548849876162,15.968504011678952,190.14,-1.2640139000862973,7
13.20610761539827,-18.356446420458177,-44.806759548769946,52.82887313651942,-35.93933647388874,14.576027685312484,18.491534005886695,190.144,-1.2600139000862782,7
14.179952593490803,-20.94940095378658,-44.73995363715423,53.78731319643182,-38.52380122516169,15.81500193088862,20.43088809529126,190.148,-1.2560139000862875,7
14.911864039862483,-23.124474231832114,-44.02950670708776,54.33103161059812,-40.49357532946287,16.898044035439327,21.50661658248283,190.152,-1.2520139000862969,7
15.001551538219458,-24.421005616925584,-42.914534244878965,54.575414831001254,-41.17082373589821,17.3248549427621,21.604542285719955,190.156,-1.2480139000862778,7
14.45186772791943,-24.2171999106791,-42.27262138694931,54.415384002479726,-39.84906072123591,16.676042585998363,20.795587702466808,190.16,-1.244013900086287,7
13.70881217304499,-22.481588533691603,-42.71722951628815,53.69128839719877,-36.694812281396175,15.122893325262968,19.370636435869223,190.164,-1.2400139000862964,7
13.232223850369756,-19.991066586010547,-44.03281227977741,52.53672872475233,-32.92167331134037,13.361124190158925,17.81547541184733,190.168,-1.2360139000862773,7
13.056332718171234,-17.889735080599262,-45.40782232749163,51.5288677988129,-30.05981495194959,12.06545677562051,16.70671506743586,190.172,-1.2320139000862866,7
12.821111539863953,-17.067785266001025,-46.13835052991049,51.413796292900344,-29.009446673034635,11.43747053490576,16.543204101276096,190.176,-1.228013900086296,7
12.22797645257656,-17.814923997704366,-46.11013528887507,52.56955559291918,-29.64239066547262,11.238846243455653,17.531071663100686,190.18,-1.2240139000862769,7
11.39951620027309,-19.806644876299845,-45.69252511513215,54.652516159584785,-31.108081950457937,11.154126421708035,19.401093160324034,190.184,-1.2200139000862862,7
10.745820171601968,-22.289985867418906,-45.268511985890775,56.775891485046294,-32.45323272767568,11.054699153424323,21.4353197709128,190.188,-1.2160139000862955,7
10.514985906107265,-24.44800559772898,-44.88550767289299,58.138784483000165,-33.13323475759761,10.976453702256926,22.83652393685525,190.192,-1.2120139000862764,7
10.564826427523002,-25.931135015874673,-44.281075613165065,58.61365333238176,-33.2512229051557,10.99652280182805,23.28843097246265,190.196,-1.2080139000862857,7
10.618794843422428,-27.24299165431233,-43.152842141919955,58.78615321594332,-33.489356917340494,11.229438931805195,23.250803722401862,190.2,-1.204013900086295,7
10.682739279010722,-29.478352366144993,-41.391397094223976,59.38372891138423,-34.68906902913304,11.88234793929388,23.610002359813198,190.204,-1.200013900086276,7
11.09407657285173,-33.35238605184667,-39.12768688523351,60.57538884664254,-37.200656209458835,13.15431274078904,24.85695098625574,190.208,-1.1960139000862853,7
12.107412073690197,-38.295641069447306,-36.62917772902893,61.779860469641214,-40.46739454110971,14.986395422243504,26.51854537401107,190.212,-1.1920139000862946,7
13.493759622638736,-42.64465723755675,-34.13956541192215,62.192856000187064,-43.352798397037034,16.970392545965662,27.48001287772451,190.216,-1.1880139000862755,7
14.657403405835755,-45.03481121058505,-31.74592247786695,61.575403237403485,-45.10892799612279,18.63449455143075,27.02236048990483,190.22,-1.1840139000862848,7
15.188253899114708,-45.73741145578989,-29.37385472448296,60.550710207099584,-46.08257363708616,19.855385929499015,25.599489781645747,190.224,-1.1800139000862941,7
15.234239438452718,-46.41896237851933,-26.994173778405262,60.06766224124358,-47.2539214211954,20.874702524570864,24.490453373852834,190.228,-1.176013900086275,7
15.246718839424874,-48.26826428797328,-24.94613899236085,60.48447739911837,-48.83945307458694,21.781852464570107,24.54080765180775,190.232,-1.1720139000862844,7
15.377911315861526,-50.3380640869898,-24.03100185854778,61.16237002824454,-49.44765758638053,22.040873425556676,25.235568762255394,190.236,-1.1680139000862937,7
15.266693617225554,-50.1499775209849,-25.04345649227824,61.05483222934605,-47.12394003191046,20.81454914118303,25.18129905741898,190.24,-1.1640139000862746,7
14.55477165813634,-46.48074256626841,-27.88627141625013,59.83148067608845,-41.77993595914098,18.06027105215294,23.700426555281794,190.244,-1.160013900086284,7
13.60335799593698,-41.70392418504146,-31.01921514332973,58.466831774030965,-36.64759569941732,15.333449881099186,21.96709537672141,190.248,-1.1560139000862932,7
13.516102811580057,-40.88673456770759,-32.03296010561734,58.60601094713434,-36.69160565408654,15.151247565457863,22.33793900323922,190.252,-1.1520139000862741,7
15.224371631350234,-47.71370311564201,-29.293449040667596,61.13441785291194,-44.6123540769324,19.027935900203754,26.232780848776084,190.256,-1.1480139000862835,7
18.446964181860558,-60.68920658703515,-23.47199628235446,65.21278051161809,-57.80211340994063,25.80413911152564,32.499432474325964,190.26,-1.1440139000862928,7
21.648832290873862,-73.4589358776286,-17.49514116215435,68.74714731121796,-69.46062593703749,32.03159889690661,37.98712447782202,190.264,-1.1400139000862737,7
23.240033254422308,-79.62386202367227,-14.566469201437874,70.01681982869042,-73.62856250558863,34.4968600653934,40.06518058219269,190.268,-1.136013900086283,7
22.99053733870438,-78.11256367427958,-15.643193421674422,69.09080376609333,-70.10935513501593,32.89013505073292,38.8936360754393,190.272,-1.1320139000862923,7
22.294108071363496,-74.22959042570541,-18.50303508079597,67.76613465669399,-64.83840710982126,30.200467571748366,37.31032231651684,190.276,-1.1280139000862732,7
22.933434674226117,-75.13774247848761,-19.40766737550023,68.02839556636593,-65.00881852920351,30.273960357544244,38.318437785055075,190.28,-1.1240139000862825,7
25.43355702152219,-83.56835362171658,-16.164378422759018,70.34228474582424,-72.95390629431509,34.525808949261595,42.384987622182685,190.284,-1.1200139000862919,7
28.52466647534607,-95.27521515947633,-10.051830762578534,73.23663975880702,-84.0604071066264,40.659145537038334,46.967001257489855,190.288,-1.1160139000862728,7
30.21310912122221,-102.45915208310726,-4.918176552650707,74.50963690943213,-90.52301738677708,44.52443783081038,48.65316216107037,190.292,-1.112013900086282,7
29.464047375379224,-100.10590565614122,-4.14492055648733,72.98468632470185,-87.64909101861393,43.48921647602385,45.96196705513755,190.296,-1.1080139000862914,7
26.974579546348448,-89.76235614569744,-8.004436953843035,69.3426671405616,-77.3272308908798,38.41622336638608,40.360553937124116,190.3,-1.1040139000862723,7
24.43125570550134,-77.81009187729724,-13.57643305741528,65.44459680210478,-65.99455135885582,32.69314861972763,34.81207516623459,190.304,-1.1000139000862816,7
23.0615172631784,-70.22245218232867,-17.165377613436014,62.86789731173944,-59.31348999791968,29.3938731283187,31.378032090447828,190.308,-1.096013900086291,7
22.834268837530495,-68.52358951953998,-17.08315325785856,61.9281595488041,-58.30997926719792,29.13038463222341,30.02390902603846,190.312,-1.0920139000862719,7
22.898863896803082,-69.98549519148277,-14.537994245989717,61.855622612266934,-59.87166940419952,30.245815745657527,29.39485658694448,190.316,-1.0880139000862812,7
22.628491847136615,-71.01522285916789,-12.175468064482981,61.720413111866904,-60.36449270151338,30.75499706842358,28.451281597737147,190.32,-1.0840139000862905,7
22.17045599775042,-70.17616012065818,-11.811653254568718,61.16763628177507,-58.675274862117945,30.03326274490137,27.291733212918018,190.324,-1.0800139000862714,7
22.060748724741604,-68.37947433792935,-13.326317639904289,60.41264324477355,-56.20624521879567,28.851339697700674,26.587305529413477,190.328,-1.0760139000862807,7
22.460853671478553,-66.88966714845975,-15.36360948923411,59.73916687684328,-54.58711087872421,28.124088009062593,26.516278959033674,190.332,-1.07201390008629,7
22.88847769679507,-65.67488451061405,-16.824600409902718,59.133364573288276,-53.8225384142723,27.863796085196686,26.43638497950905,190.336,-1.068013900086271,7
22.701182297864527,-63.71682244336689,-17.664872976006027,58.38773760762463,-52.62008845291449,27.339600457467448,25.573263509330765,190.34,-1.0640139000862803,7
21.769261503342868,-60.54599890017927,-18.46711435348851,57.44538245135127,-50.13529239356658,26.055001056574884,23.87876063596534,190.344,-1.0600139000862896,7
20.604790038843273,-57.06372754855007,-19.52287126052244,56.53995474924301,-47.021154834561614,24.362508955794983,22.100499899752872,190.348,-1.0560139000862705,7
19.82253587178347,-54.7243789171839,-20.48182630025111,55.98305614112347,-44.68151064375568,23.061571556765,21.020552291518737,190.352,-1.0520139000862798,7
19.51768237967409,-54.05987785111567,-20.84416124921371,55.87024746673453,-43.69299389880467,22.49128430002477,20.71781885270067,190.356,-1.0480139000862891,7
19.22125019061201,-54.23069798375212,-20.62196381382845,56.05054920214577,-43.23185610952435,22.16783780995162,20.644880704395522,190.36,-1.04401390008627,7
18.487760978235475,-54.12560728716007,-20.370304813048325,56.38209299555416,-42.187057823193435,21.403742623042437,20.409373326569757,190.364,-1.0400139000862794,7
17.516577501743786,-53.83276743652066,-20.53700144962654,56.96035352437575,-40.76854393535997,20.2687691897555,20.392612605632166,190.368,-1.0360139000862887,7
17.15604971944303,-54.86717385311634,-20.851237850857977,58.02939412072659,-40.80843880592273,19.839827357679518,21.501579312047898,190.372,-1.0320139000862696,7
18.220991817021314,-58.78108218545627,-20.452721044699597,59.63988890013492,-44.223305485868465,21.35740745476063,24.238820544107497,190.376,-1.028013900086279,7
20.702218308228968,-65.41619254854464,-18.701565324949,61.415699314469116,-50.969580710408394,24.990281629604393,27.979139331599587,190.38,-1.0240139000862882,7
23.568141249158284,-72.46642738805836,-15.906390103437836,62.712419394336614,-58.438363275240526,29.350545696990903,31.18007442625095,190.384,-1.0200139000862976,7
25.368702177325737,-76.85284400589767,-13.267438581850572,63.07024999903687,-63.00701298755815,32.279568654115224,32.40877474482857,190.388,-1.0160139000862785,7
25.198975680064795,-76.81264719262238,-12.065697050323603,62.563888889339815,-62.557206181744135,32.323637242319116,31.349048612966392,190.392,-1.0120139000862878,7
23.305625590531182,-73.03116372144119,-12.800103782383893,61.73346362191111,-57.92900785985637,29.730152540170756,28.991033611068392,190.396,-1.008013900086297,7
20.908070409768733,-68.01829145150262,-14.962793221718066,61.16340667972841,-52.208862089853085,26.209739359172897,26.908730314403734,190.4,-1.004013900086278,7
19.38948472287639,-64.36660824533826,-17.52889457659785,61.08883937023835,-48.54090349270767,23.716308096138953,26.241774125390105,190.404,-1.0000139000862873,7
19.438813743160985,-63.27206502275413,-19.654160684386426,61.3568308783315,-48.222761876810374,23.21833610617954,27.13500685627893,190.408,-0.9960139000862966,7
20.711522548334127,-64.2511187451194,-21.03359140580016,61.714801264912055,-50.38141570114094,24.31747352884725,28.922328509967073,190.412,-0.9920139000862775,7
22.17991566526932,-65.91774139449443,-21.802030327216496,62.08986181861309,-53.101156863229576,25.81531455818508,30.735836542873034,190.416,-0.9880139000862869,7
22.870423355347008,-66.96841680093144,-22.256549181020155,62.55698163514353,-54.81119325684987,26.627389685542916,31.98136456276802,190.42,-0.9840139000862962,7
22.46035100708611,-66.65726591335908,-22.69004905075782,63.033352798249226,-54.860954212610686,26.337049942904777,32.37751542848749,190.424,-0.9800139000862771,7
21.359961829685105,-64.7079076774288,-23.356149689127264,63.04854134546452,-53.19518182044302,25.136887555487228,31.713848456362225,190.428,-0.9760139000862864,7
20.301296300185175,-61.102529372263895,-24.412966895064343,61.91304887722983,-49.85990642094624,23.43647027727173,29.72458723358773,190.432,-0.9720139000862957,7
19.796209225576032,-56.11353590727631,-25.80058365630481,59.245750859030125,-45.00728328360666,21.573315808664713,26.30612695391693,190.436,-0.9680139000862766,7
19.87059989411733,-50.50397166603326,-27.20059114537171,55.44786425736452,-39.33267380867184,19.811581263777022,21.90719120481796,190.44,-0.964013900086286,7
20.21933897936248,-45.53336776656242,-28.210005137001307,51.68002313915511,-34.29723228776853,18.47478569261229,17.666457380202388,190.444,-0.9600139000862953,7
20.582043030645625,-42.55568618567987,-28.62093155798899,49.26734146628829,-31.650166086034748,17.961934899852842,15.015464432916858,190.448,-0.9560139000862762,7
20.991123862947767,-42.40269864275055,-28.52817093239521,48.92576147237407,-32.47028775451774,18.574330829002367,14.909941165339287,190.452,-0.9520139000862855,7
21.69420698513115,-44.986577822711375,-28.13585713697226,50.37225717231787,-36.47299215923473,20.303661408252804,17.22530155321653,190.456,-0.9480139000862948,7
22.854164289762874,-49.4015613075061,-27.471975467146144,52.59934369480984,-42.16358434679431,22.77688518670544,20.806727950168384,190.46,-0.9440139000862757,7
24.316787377634896,-54.42105153965742,-26.35555447056765,54.58782089534416,-47.73108453050966,25.41067258169602,24.192409686059648,190.464,-0.940013900086285,7
25.657541792602593,-59.02583267213966,-24.696590048155894,55.91150807109537,-52.001808044286896,27.661500233064483,26.493680667820023,190.468,-0.9360139000862944,7
26.459564096527384,-62.64806220958799,-22.806977523503697,56.80299975924977,-54.7822700688338,29.207818970088077,27.76692697606025,190.472,-0.9320139000862753,7
26.570542173381792,-65.06485594026566,-21.329612285464197,57.69162913224595,-56.43990733139753,29.96888152670678,28.603322724792825,190.476,-0.9280139000862846,7
26.114633836378083,-66.09963545517378,-20.784978455129544,58.63427576081436,-57.13611614044511,29.97026651454387,29.30155393901213,190.48,-0.9240139000862939,7
25.268166237623422,-65.38099190159335,-21.183293288890823,59.12437681518983,-56.3428353212334,29.157387157082646,29.35719030182167,190.484,-0.9200139000862748,7
24.035869021293763,-62.390361047041495,-22.124019896785367,58.45245824493893,-53.06659885357924,27.319687303867617,27.77296522730579,190.488,-0.9160139000862841,7
22.27639452251778,-56.90335798649109,-23.269511880212676,56.350309989299134,-46.73585496384373,24.26883576934539,24.013184549385215,190.492,-0.9120139000862935,7
19.990795533960874,-49.64390822835436,-24.613639371619396,53.407286190814055,-38.204049935128005,20.240534740786075,18.82298106954078,190.496,-0.9080139000862744,7
17.598830311004253,-42.61244193507547,-26.157964365230132,50.87885162672931,-30.041104468509374,16.210212121526297,14.12361670955512,190.5,-0.9040139000862837,7
15.85984118483108,-38.472724308817035,-27.343818476670666,49.93357910927887,-25.51898879001643,13.682656142789028,11.859455138605172,190.504,-0.900013900086293,7
15.365943723257942,-38.93771533498295,-27.059988840977088,50.82221183973981,-26.54812044033205,13.80774988733347,12.549919165960873,190.508,-0.8960139000862739,7
15.96232798949701,-43.10099834259943,-24.586081765620733,52.58658568007302,-31.87024558314054,16.316614080745627,14.691797941045056,190.512,-0.8920139000862832,7
16.648682451803293,-47.24838600126835,-20.74720603209246,53.61541825552486,-37.152617616752394,19.22431019078555,15.659798751999531,190.516,-0.8880139000862926,7
16.221982411543863,-46.9691251243646,-17.978260772513977,52.75681522830579,-37.571538494546665,19.909200252720836,13.630926498854755,190.52,-0.8840139000862735,7
14.282911949738526,-40.516700446627404,-18.751007072575515,50.22239189698786,-31.452978843508735,17.075135641958422,9.140246874026854,190.524,-0.8800139000862828,7
11.77674844051044,-30.821998633131606,-23.414515298905513,47.56343030090666,-22.159981111850417,12.09457022370239,4.961746078768045,190.528,-0.8760139000862921,7
10.464375495191723,-24.027119335028463,-29.40464408465059,46.62578388912566,-16.226959090253388,8.378455636783919,4.190107488831167,190.532,-0.872013900086273,7
11.570966666658288,-25.04492672630252,-32.87835121263851,48.187244565443436,-18.597414443746555,8.906888432307758,7.8555927182781415,190.536,-0.8680139000862823,7
14.665878322747803,-33.4580495276666,-31.697170413036584,51.31700565687948,-28.53521385034838,13.758346439982406,13.949203371441893,190.54,-0.8640139000862916,7
17.810507100629174,-43.38081893171164,-27.2550087903454,54.02274627961023,-39.777684943707825,19.796100420423148,18.78415886510233,190.544,-0.8600139000862725,7
19.030978621171535,-47.92327469500693,-23.422091348825607,54.75850095348113,-45.280458991755744,23.04632883461532,19.790016626320302,190.548,-0.8560139000862819,7
17.98603954702126,-44.86933744278075,-23.35810094346525,53.63356348230215,-42.93038020972001,21.959842676783214,17.578372889859402,190.552,-0.8520139000862912,7
16.384004069574996,-38.73015678314783,-26.914571922872227,52.3349810632091,-37.41735020078497,18.785676563205637,15.5574172108153,190.556,-0.8480139000862721,7
16.66460077869536,-37.126036459010976,-30.902916339559756,52.78217428937233,-36.44878950214822,17.749068518345684,17.28189871430559,190.56,-0.8440139000862814,7
19.958860222685058,-44.33844825659333,-31.954507587427813,55.57438249528232,-44.31859735251886,21.48380982219411,23.59450065637851,190.564,-0.8400139000862907,7
25.047968168854677,-57.530258175764985,-29.372552795195656,59.48742185320344,-58.26258831594396,28.77211373575953,31.85789552908695,190.568,-0.8360139000862716,7
29.25163599005569,-68.97322266481446,-25.45138279277676,62.42734773173152,-70.72750490810883,35.55958540837827,37.91354123553457,190.572,-0.832013900086281,7
30.518837876272503,-72.38724253135501,-23.14048854662218,63.05034043497577,-75.55507411869296,38.33244653543079,39.18118034999109,190.576,-0.8280139000862903,7
28.93915489519564,-67.86532729432511,-23.36884929308758,61.72385519643044,-72.69893735826466,36.86687671944582,36.403227134605466,190.58,-0.8240139000862712,7
26.415178967273253,-61.17461838313278,-24.520791827694772,60.08600996356699,-67.5176514506475,33.99542688469898,32.71644584593584,190.584,-0.8200139000862805,7
24.87758060721307,-58.3071011083447,-24.37749742142923,59.64575848082232,-65.60046630878078,32.784842807930715,30.97688294258859,190.588,-0.8160139000862898,7
24.68664015099517,-60.327122926871255,-22.479202814887824,60.62842401131253,-67.96137436577204,33.81574299485316,31.636892950370257,190.592,-0.8120139000862707,7
24.602030035389838,-63.02585666557912,-20.593664330497933,61.97596758281961,-70.78185541754507,34.98960361638436,32.83377517902832,190.596,-0.80801390008628,7
23.201867745981005,-61.29119868834759,-20.95426717481303,62.36940918482087,-69.4835153498292,33.808229931813486,32.349474350374464,190.6,-0.8040139000862894,7
20.32579859052077,-53.85011666026833,-24.118430076435743,61.30079315256326,-63.01369419687373,29.797764839523126,29.557884350970657,190.604,-0.8000139000862703,7
17.20806947353434,-44.060384327962886,-28.547032191823355,59.300644472315255,-54.42145934787622,24.8112458969964,25.708916024816446,190.608,-0.7960139000862796,7
15.291108736066144,-36.44547549568351,-32.18282030290335,57.27568860443357,-47.63529212355408,21.140198673683802,22.556591907957433,190.612,-0.7920139000862889,7
14.943632309052758,-32.64328249102993,-34.32784749758051,55.70003258392593,-43.935608158008066,19.455373800324605,20.807699453315244,190.616,-0.7880139000862698,7
15.286755537174054,-30.616902545843164,-35.95390480003292,54.419215574277075,-41.52851562431975,18.568225676768613,19.825126181976103,190.62,-0.7840139000862791,7
15.170228917659305,-27.47475542082581,-38.28054922383822,53.131475341897705,-38.2320002174278,17.03549876369542,18.650101838839426,190.624,-0.7800139000862885,7
14.246511229835944,-22.726971888425723,-41.21166089913849,51.93146301647431,-34.169109535423125,14.79806163213217,17.131706444544918,190.628,-0.7760139000862978,7
13.11741363053903,-18.68450285129109,-43.27177832229778,51.2981457612758,-31.617786473025564,13.16641652691423,15.992091727885393,190.632,-0.7720139000862787,7
12.548776182291853,-17.833248951283714,-43.07794221274659,51.53813688788954,-32.32405179340738,13.286784078087843,15.861545809168462,190.636,-0.768013900086288,7
12.662117449165983,-20.053815096780124,-40.82536076337012,52.29129162250271,-35.25938768383474,14.788590372180147,16.396564100136143,190.64,-0.7640139000862973,7
12.916981208785629,-22.511408299977838,-38.30387553166648,52.66205287224722,-37.26416605509321,16.04092755440501,16.459488251299682,190.644,-0.7600139000862782,7
12.788963712272407,-22.201618617334923,-37.4539589444286,51.914166947142036,-35.95220068443591,15.714038952072334,15.190608634712675,190.648,-0.7560139000862875,7
12.336888616224567,-18.5460496897036,-38.8499911584431,50.096688415533066,-31.914959732382872,14.009777675451325,12.867645873320635,190.652,-0.7520139000862969,7
12.06070325946099,-13.619968036315576,-41.4450171119195,48.021320176211184,-28.037451874758133,12.340906155975805,10.67950743134525,190.656,-0.7480139000862778,7
12.278784388273186,-10.097287856785758,-43.62927054490978,46.61880355912135,-26.708626151160765,11.878029285912003,9.659567319549776,190.66,-0.7440139000862871,7
12.762307723576304,-9.100516248671138,-44.50750080951749,46.25938691342591,-27.751172477313602,12.489162858200308,9.84833204029973,190.664,-0.7400139000862964,7
13.023283790884046,-9.841486918335377,-44.33221361944297,46.60602149608253,-28.98774466379737,13.071695527437948,10.460444387171208,190.668,-0.7360139000862773,7
12.88913523038429,-10.893070360590889,-43.98970767361682,47.042608515904284,-28.611701864043837,12.781298167846066,10.781437984116916,190.672,-0.7320139000862866,7
12.685081562388644,-11.472254184637727,-44.23226909722991,47.225106382657614,-26.86022785251231,11.81876011825529,10.83580307107841,190.676,-0.728013900086296,7
12.823683839830053,-11.609149980914522,-45.28887821927219,47.28877934560642,-25.494629341529276,11.060541607499584,11.219652748779927,190.68,-0.7240139000862769,7
13.304756447637336,-11.604881779179959,-46.89607820298746,47.64167211123476,-25.9820883142258,11.114136687485225,12.422483050035893,190.684,-0.7200139000862862,7
13.740514788732805,-11.829541364785156,-48.45520883952693,48.63306270388822,-28.421416610677046,11.8946969980495,14.437892324318627,190.688,-0.7160139000862955,7
13.898934150986927,-13.050258556890714,-49.215265752886225,50.379467575032926,-32.09100641418457,13.066053164346947,17.012075833594732,190.692,-0.7120139000862764,7
14.110297206384468,-16.399006115887953,-48.63574648214731,52.76596378211269,-36.54267169941073,14.622698151594868,20.078465157353975,190.696,-0.7080139000862857,7
14.97643741939163,-22.33911944227715,-46.90209725067274,55.47122492246072,-41.69992798973955,16.772057008226113,23.72142533261099,190.7,-0.704013900086295,7
16.60768125420673,-29.419314715493854,-45.12926619274626,57.96240192475315,-46.88935637992466,19.228882253116595,27.63897185608834,190.704,-0.700013900086276,7
18.231725130059313,-34.44210800026446,-44.77261440323,59.586634606811295,-50.305016640176014,20.90356316186243,30.797816144937453,190.708,-0.6960139000862853,7
18.734007216357845,-34.60363275054475,-46.45208461034868,59.86445044044252,-50.11123407947472,20.656346283522367,31.912147500045446,190.712,-0.6920139000862946,7
17.72361586363186,-30.03256340788394,-49.16955708752801,58.84643735306416,-46.43166608571981,18.550603833626326,30.513129530809426,190.716,-0.6880139000862755,7
16.07511288362335,-24.26385380266571,-50.82312626927406,57.21227323562488,-42.071791889321894,16.253781895006448,27.617603947007012,190.72,-0.6840139000862848,7
15.308100240896152,-21.780734395531134,-49.83034611860927,55.928664876778136,-40.74148956549503,15.896892396313232,25.21891256564794,190.724,-0.6800139000862941,7
16.284926251292443,-24.50223757291478,-46.53373320847922,55.65474014009116,-44.03182718076784,18.249354164190535,24.87877740658773,190.728,-0.676013900086275,7
18.416516510478488,-30.257895935698105,-43.07791749214912,56.32953431164413,-49.87239665827099,21.89389054390098,26.568268720094625,190.732,-0.6720139000862844,7
20.124019831856874,-34.58306496070775,-41.76262551984758,57.242668745044114,-53.989153541892016,24.249336012175593,28.718819433370776,190.736,-0.6680139000862937,7
20.123840247320715,-34.168035175143764,-43.292856819108295,57.50133461546854,-53.10396402098851,23.55544085488293,29.384240297568393,190.74,-0.6640139000862746,7
18.351381163984673,-28.91809603571805,-46.46401907413259,56.53051017359496,-47.046794451749165,20.037703365983287,27.509314858036877,190.744,-0.6600139000862839,7
15.747085929026532,-21.118966258600356,-49.467109126600015,54.30247360101244,-38.14386398731019,15.316335025701646,23.364044816769965,190.748,-0.6560139000862932,7
13.257343159760687,-13.016380236935689,-51.48083257513978,51.261719398530055,-28.912060313508686,10.836400937380226,18.053809629913204,190.752,-0.6520139000862741,7
11.107201914606899,-5.375479338510654,-53.02974123006967,48.10026722165925,-20.49197646146636,6.933468368292353,12.75625952548821,190.756,-0.6480139000862835,7
9.007962714886627,1.827482324027279,-54.89999521904656,45.51689307426399,-13.084545982267715,3.313956167258452,8.318246920877954,190.76,-0.6440139000862928,7
6.934130384218071,7.845645636491612,-56.87430975636104,43.99421463454523,-7.345674302684951,0.1718798709993391,5.274113532791773,190.764,-0.6400139000862737,7
5.525558678482987,10.832857108077215,-57.684643086751436,43.62484509828797,-4.766362033140348,-1.4591949129795172,3.926939148023156,190.768,-0.636013900086283,7
5.614936049399886,9.32348062610673,-56.27036254370179,44.090051187864326,-6.416854791440878,-0.5986240378264854,4.257373509598225,190.772,-0.6320139000862923,7
7.344400288295988,3.9805536927965903,-53.040534221960236,44.86741932848762,-11.446327979967425,2.4881822307755677,5.806306661571909,190.776,-0.6280139000862732,7
9.799535329799689,-2.3341071485429383,-49.80377928329101,45.55786547543205,-17.13651393705924,6.12449984956398,7.792499714097483,190.78,-0.6240139000862825,7
11.587634134176575,-6.4231401088079085,-48.36806547001145,46.06520649117331,-20.685673567221496,8.368169681820135,9.455868838870835,190.784,-0.6200139000862919,7
11.858148740928996,-6.874745387373804,-49.13338899066192,46.46507140763306,-21.070454774282364,8.412784144522567,10.342584859233476,190.788,-0.6160139000862728,7
10.852857282602427,-4.614078008600374,-50.96151751106069,46.721432403525625,-19.29428366434654,6.9639421139093365,10.331647383970225,190.792,-0.6120139000862821,7
9.55504869786095,-1.7098106031477684,-52.302372470955994,46.60735430355538,-17.05256462435251,5.380160272656361,9.522184424383598,190.796,-0.6080139000862914,7
8.844929853023126,0.15164318135211488,-52.37594313748887,45.98712334696081,-15.373646310930955,4.5474811660077545,8.218411901076024,190.8,-0.6040139000862723,7
8.926629919617017,0.2157700773830067,-51.34508140462799,45.173556827516414,-14.487726661627383,4.52486587445629,6.9919853672826475,190.804,-0.6000139000862816,7
9.399266363661834,-1.6510682902762372,-49.619234299302065,44.87717783956202,-14.535048192639465,5.005066199077985,6.523840379915941,190.808,-0.596013900086291,7
9.702423051257984,-5.0864150614786405,-47.32964852759096,45.61578676714367,-15.760114840083615,5.773624766418385,7.08434384433319,190.812,-0.5920139000862719,7
9.444318886709093,-8.769423931215409,-44.638600927317725,47.06873191747434,-17.707540805539853,6.568504744653442,8.034010115236132,190.816,-0.5880139000862812,7
8.441914901706399,-10.274953302560494,-42.377895115462174,48.08208054847074,-18.556137627820405,6.692600541284181,7.992390054381764,190.82,-0.5840139000862905,7
6.689879126614532,-7.287887835534941,-41.9527781957277,47.51471724343126,-16.006835529147967,5.196786190223971,5.84611900014086,190.824,-0.5800139000862714,7
4.459323071862112,0.2899663821364191,-44.22378702365741,45.27483208898706,-9.464345003695392,1.7920024908610583,1.872007993506161,190.828,-0.5760139000862807,7
2.3869756459386493,9.348676641986481,-48.38106921355755,42.57315463771666,-1.3956109552287417,-2.4069333632708325,-2.1251933935846434,190.832,-0.57201390008629,7
1.2500526190951329,15.255441143254895,-52.14433936437244,41.03641773399695,3.992005815311273,-5.3460931650121335,-4.0434847822736355,190.836,-0.568013900086271,7
1.4213945103817975,15.3314010084768,-53.42837963847814,41.38044350965251,4.086406331004783,-5.609875869122967,-3.1813898519147488,190.84,-0.5640139000862803,7
2.459122611363136,11.140278289950917,-52.05054586432125,42.82602331301893,0.2392108507898379,-3.719183946362901,-0.8949052544386391,190.844,-0.5600139000862896,7
3.3283639926396176,7.247911421860044,-49.80816941125979,43.821617076771595,-3.310189542305783,-1.774675633014869,0.4951420953092351,190.848,-0.5560139000862705,7
3.210272146380867,7.248602375602894,-48.73719358237262,43.44267772324413,-3.2596322041527768,-1.5820615566442953,-0.3226649020581617,190.852,-0.5520139000862798,7
2.226507483646917,10.565297562772834,-49.17116858913332,42.19558961594988,-0.3216824703105099,-2.958742691650286,-2.5358009112754782,190.856,-0.5480139000862891,7
1.3765162830358526,13.029058754614375,-49.495895518905265,41.500321534863225,1.4433109261346262,-3.8865362560897814,-3.966775723653002,190.86,-0.54401390008627,7
1.6695268586286416,10.792818874044517,-47.869415914309336,42.35743006878656,-1.4817972461384057,-2.450289316915048,-3.01827332409688,190.864,-0.5400139000862794,7
3.204741215034894,3.9794562852496087,-44.22616211084224,44.44844435295266,-8.618981488510304,1.2538124562855053,-0.04131071017010946,190.868,-0.5360139000862887,7
5.042813397641999,-3.312724002152076,-40.57157851874931,46.47077958155819,-15.768135470727803,5.074223335363486,3.0646216770655434,190.872,-0.5320139000862696,7
5.998376680055847,-6.596688642596222,-39.24225883136271,47.32395820549803,-18.7162097826731,6.678836439110476,4.553985931967696,190.876,-0.5280139000862789,7
5.639668659228651,-4.801714416247024,-40.80026908803688,46.99956744849501,-16.840155206107255,5.5740562778652345,4.228846324802288,190.88,-0.5240139000862882,7
4.612133621602706,-0.8792594375203612,-43.5643545441802,46.39670746472613,-13.310390943291864,3.4112747158982173,3.3338891227653957,190.884,-0.5200139000862976,7
4.049884560767931,1.053825167178435,-45.15185026511275,46.36883967424495,-11.997970361133794,2.4226606372830837,3.2546105867721677,190.888,-0.5160139000862785,7
4.65853023138318,-0.8775466758320266,-44.47734406713552,47.00649612553379,-14.267708204896216,3.5781031981358473,4.379469392810963,190.892,-0.5120139000862878,7
6.273944664137905,-5.424739579018784,-42.33892304039536,47.8095638293268,-18.59775043845846,6.14852540727981,6.12937915712811,190.896,-0.5080139000862971,7
8.17644220698503,-10.174604308538193,-40.246239052162395,48.42550706543839,-22.87243152708368,8.824316092832678,7.867009522528186,190.9,-0.504013900086278,7
9.737361031757683,-13.931031804845995,-38.881287122158994,49.064916953891085,-26.563887384179715,11.020491282522087,9.55343704301387,190.904,-0.5000139000862873,7
10.76797263596703,-17.082236753867416,-37.78081485962355,50.12370297081402,-30.494701682173396,13.018009626185616,11.448068062697692,190.908,-0.49601390008629664,7
11.347757196353774,-19.965333692405533,-36.395980250511265,51.46427579933047,-34.74501498007465,14.990984512095611,13.3033114152116,190.912,-0.49201390008627754,7
11.448467664610195,-21.416242167608335,-35.199970238028286,52.22991372382346,-37.356229668282126,16.190276614095946,14.103784071389162,190.916,-0.48801390008628687,7
10.805720931097872,-19.343553076605478,-35.52442211842393,51.5183768548046,-35.57673119044248,15.321901148865695,12.79870745070371,190.92,-0.4840139000862962,7
9.160376237940563,-12.82195934349574,-38.22985298579702,49.29242107323672,-28.54340722383648,11.798849323242617,9.34357291870937,190.924,-0.4800139000862771,7
6.597832506731509,-3.464292912934108,-42.60381377092864,46.57124254036223,-18.6001534068452,6.554570631370136,4.944614412244105,190.928,-0.4760139000862864,7
3.6455654831468083,5.46749041694526,-46.6857360823325,44.61911505643683,-9.738527346476037,1.5252852297775574,1.1668072425020843,190.932,-0.47201390008629573,7
1.046204092465156,11.437390789331571,-48.780449151470556,43.86226848745929,-4.541867794365632,-1.749392218064584,-1.274154205355216,190.936,-0.46801390008627664,7
-0.6061168638888905,14.272454677054954,-48.75106955937861,43.576215680248076,-2.4884191141096568,-3.1161687172128927,-2.886896102712945,190.94,-0.46401390008628596,7
-1.1338172364738819,15.6974888943601,-47.94115121332731,42.64881234084125,-1.0434314389536121,-3.5795149231055974,-4.648386423340919,190.944,-0.4600139000862953,7
-0.843475852019804,17.523257371382446,-47.9209424376748,40.66994274706219,1.7824840830363124,-4.25944758675335,-6.951818325032968,190.948,-0.4560139000862762,7
-0.3922401758446814,20.35062254352209,-49.283351766967044,38.29318256848426,5.949309369043517,-5.595364036563137,-9.322158501674986,190.952,-0.4520139000862855,7
-0.4740610630889288,23.738070457949824,-51.473987903128545,36.56455117887644,10.094448607762773,-7.372873491628813,-11.076147786742727,190.956,-0.4480139000862948,7
-1.4013972985950858,27.080262621569084,-53.531906863790944,35.946413624577836,13.192132848784354,-9.20362589570603,-12.08187903683918,190.96,-0.4440139000862757,7
-2.8036893822497344,29.917898406249,-54.85070557024281,36.0262924313797,15.195733085627454,-10.75824808994055,-12.727280880823047,190.964,-0.44001390008628505,7
-3.7372103187641508,31.490551102577427,-55.32517371263655,36.1429965929233,16.202062796116362,-11.60295469080766,-13.170271769408703,190.968,-0.43601390008629437,7
-3.285596584458413,30.566655069183025,-55.05177437191313,36.19522276023493,15.542462490681036,-11.137896314401203,-12.829073049326215,190.972,-0.43201390008627527,7
-1.2915649828842761,26.33671154510751,-54.13808535359853,36.73586815994973,12.244588336371208,-9.030721539625441,-10.856796165320194,190.976,-0.4280139000862846,7
1.3945152065146516,19.664544595666005,-52.812094811516566,38.25509895517569,6.511050141536157,-5.796417268543826,-7.2166968188320855,190.98,-0.4240139000862939,7
3.4707144775683174,13.111485098496214,-51.496770466532595,40.45372328878394,0.3820754700638544,-2.749343217867816,-3.1718846505118905,190.984,-0.4200139000862748,7
4.168249698184239,9.182399046024992,-50.54724812112159,42.33798907914124,-3.562392747045843,-1.0948247553108994,-0.4841721998721058,190.988,-0.41601390008628414,7
3.8203204891243017,8.262600891965173,-49.887989358594695,43.08779467378737,-4.385612467811893,-0.9327211707756046,0.03560694230535968,190.992,-0.41201390008629346,7
3.4638374268721246,8.415145279365067,-49.08643323839117,42.802192642700554,-3.547086937583999,-1.2416909603667874,-0.8059642125957552,190.996,-0.40801390008627436,7
3.803699150609775,7.499105873568076,-47.959715756951134,42.33285695632076,-3.240486281553846,-0.9997296234464462,-1.4357303185471713,191.0,-0.4040139000862837,7
4.519259875282576,5.541407166786663,-47.07231690712973,42.386096918071104,-3.971378191164452,-0.33954322757918565,-1.0635256342669535,191.004,-0.400013900086293,7
4.620917622102818,4.728884701664218,-47.38356065503165,42.87186229293094,-4.0750860570559,-0.43848145699618013,-0.32453644761423067,191.008,-0.3960139000862739,7
3.552247982018091,6.717925719632865,-49.15318993863368,43.21865776709097,-1.9408899425055506,-2.0905903023655457,-0.3041612852371281,191.012,-0.39201390008628323,7
1.9452629558474968,9.973317757225017,-51.18427217299757,43.29433888229919,1.348676365133661,-4.402533604769493,-0.9747901827382922,191.016,-0.38801390008629255,7
1.2006490863643897,10.273007857919152,-51.41867837850498,43.83109866998995,2.1046238899171286,-5.158352450056857,-0.8323486756287479,191.02,-0.38401390008627345,7
2.2005002651136327,4.517134830074258,-48.63907854885254,45.71195904655019,-2.613141497417002,-2.802567623430442,1.6251935279619423,191.024,-0.3800139000862828,7
4.377923378391372,-5.637018278013032,-43.763393675171095,48.73882315790394,-11.440503189665709,1.7892594138584625,5.934909192696082,191.028,-0.3760139000862921,7
6.114354371274937,-14.213417192122284,-39.345814460781355,51.24622731793051,-18.819008412031376,5.65546328283499,9.362195092894593,191.032,-0.372013900086273,7
6.18249727094669,-15.70203095275846,-37.50748190878031,51.257258116070865,-19.394891868122734,6.191999287348387,8.972650055295583,191.036,-0.3680139000862823,7
4.896036676598498,-10.095165076559518,-38.1141716988594,48.33405802633356,-12.989698157452102,3.5489573134260612,4.419982916512933,191.04,-0.36401390008629164,7
3.8369908791901253,-3.3623384459959063,-38.94633221659573,44.38073072915227,-5.36378912073378,0.6594340245381803,-1.2046958495551485,191.044,-0.36001390008627254,7
4.366323856080038,-2.5276633109736073,-37.78874780455672,42.42063334602744,-3.609013316601575,0.7005268984402057,-3.56205966841576,191.048,-0.35601390008628186,7
6.313150185094776,-9.588540037288316,-34.508329418712236,44.20355625497073,-10.061744397059769,4.243693375599113,-0.6017859626042815,191.052,-0.3520139000862912,7
8.105358441558506,-19.79076290213281,-31.144704004382735,48.689997831900264,-20.240859801364746,8.740093182479317,5.640877251942217,191.056,-0.3480139000862721,7
8.23934748658243,-25.865196419112113,-29.92835844896307,52.80936439490261,-26.756592814126893,10.842139754517108,10.65929604619994,191.06,-0.3440139000862814,7
6.693621904110959,-24.346087340925767,-31.149772476146463,53.91123936610676,-25.660134785396995,9.397335822950666,11.15379750930087,191.064,-0.34001390008629073,7
4.931240704710732,-18.22700294530386,-32.947406532866204,51.82174584357045,-19.492574492061337,6.329491888672855,7.584505533277382,191.068,-0.33601390008627163,7
4.486456099875916,-13.722025844579337,-33.19940328308661,48.77495453310705,-14.441258188447618,4.651771147251476,3.4495055358791507,191.072,-0.33201390008628096,7
5.491668870129241,-14.400865926503961,-31.642162020322033,47.38169869218395,-14.493391591609694,5.574940529803717,2.0881114463187966,191.076,-0.3280139000862903,7
6.55673176788126,-18.23062737692605,-30.130034163588213,48.4849298602708,-18.08705470763063,7.468932379365088,3.9371222406277684,191.08,-0.3240139000862712,7
6.112936975270654,-20.06178349757643,-30.788290144724286,50.72437588329456,-20.14715989038045,7.586129802837722,6.5737908712782485,191.084,-0.3200139000862805,7
3.936615253520487,-16.87490533960785,-33.86937944917324,52.00445124705094,-17.232974240124847,4.8019548331440545,7.234237695190488,191.088,-0.3160139000862898,7
1.4106028543975904,-10.68191664113817,-37.38482351244989,51.38802247643702,-10.789287245680447,0.7340788622248337,5.323323206209085,191.092,-0.3120139000862707,7
0.2942220813255515,-6.492104390420481,-38.83779048952683,49.72407331462706,-5.61620278249391,-1.7487069278116418,2.676509194300283,191.096,-0.30801390008628005,7
1.1731444464033054,-7.557536226447724,-37.37773309036096,48.627429635778746,-5.34786177852151,-1.1085676655469356,1.5911246786951139,191.1,-0.30401390008628937,7
3.0220611948659672,-12.531807020598484,-34.377350066301034,48.939872184805935,-9.377867431513977,1.6451210914065773,2.679970047335055,191.104,-0.30001390008627027,7
4.230141223451887,-17.0776890731392,-32.01875443852766,50.126453879212846,-13.94342029272259,4.127648071565944,4.555620630158793,191.108,-0.2960139000862796,7
4.080178093845937,-18.121224268121498,-31.344629952266793,51.02798233713664,-15.954933012573106,4.863403573283167,5.449223228695668,191.112,-0.2920139000862889,7
3.313525713230972,-16.606917770210607,-31.587799551037882,51.09224680237099,-15.726995445302052,4.4779642398728345,5.037976011075781,191.116,-0.2880139000862698,7
3.328656324918258,-16.30482194232701,-31.224072114454298,50.8654547808619,-16.17185543085096,4.80290197344543,4.7037364084067015,191.12,-0.28401390008627914,7
4.827663119690941,-20.052285086215353,-29.55228803883243,51.35158870559553,-19.574329463882428,6.930152464143042,6.069498299500731,191.124,-0.28001390008628846,7
7.161512067088658,-27.05042968707759,-27.270595026456242,52.949470119245134,-25.218984458127373,10.126475642809838,9.302551342517603,191.128,-0.2760139000862978,7
8.905866348485876,-33.5751086545958,-25.65681282413204,55.00734065582677,-30.01977284345969,12.534370850701054,12.804116467173852,191.132,-0.2720139000862787,7
9.078035574700394,-36.21032704904335,-25.313307526720045,56.37371190268114,-31.321686482924832,12.860079334703524,14.533494246603198,191.136,-0.268013900086288,7
7.917706747505473,-34.61374375554219,-25.69502125872428,56.38535377493471,-29.181129474309635,11.460065311277416,13.726768654858548,191.14,-0.2640139000862973,7
6.645833222570929,-31.57934434613946,-25.721142563387826,55.396062708759914,-26.228108138422094,9.9744628469215,11.512236269697047,191.144,-0.2600139000862782,7
6.522586614084757,-30.68973210604164,-24.736148885553632,54.43647397605094,-25.53738182807639,10.016467340250463,9.987734889285539,191.148,-0.25601390008628755,7
8.011741613603458,-33.69959791223953,-22.934166980853114,54.368682384671615,-28.464361071895997,12.090627184853782,10.627074781859784,191.152,-0.25201390008629687,7
10.608392668521619,-39.571747811474964,-21.054273404162412,55.25907685723363,-33.99135170065766,15.452348462642483,13.297554927897314,191.156,-0.24801390008627777,7
13.279001942215098,-45.469180792761705,-19.83222853576683,56.414139040243626,-39.63014274938787,18.72501025167116,16.513400843786552,191.16,-0.2440139000862871,7
15.080574009858713,-48.64141475879607,-19.696578869539856,56.956111493376106,-42.914075344175835,20.662106559479103,18.553276909797844,191.164,-0.24001390008629642,7
15.58527002924209,-47.950216984729785,-20.721685239184833,56.458466378245326,-42.6029976153274,20.665798401257884,18.565365030496718,191.168,-0.23601390008627732,7
15.002439401543336,-44.392314701865196,-22.5785269710583,55.21874288704841,-39.277020508361424,19.031270604066545,16.99540928862666,191.172,-0.23201390008628664,7
14.049479000858955,-40.577199983139714,-24.45583213774509,54.05652423656013,-35.2234081778959,16.92247761338343,15.227959447978202,191.176,-0.22801390008629596,7
13.62940834670372,-39.42009738801143,-25.25081033174717,53.81404484779311,-33.48101929599392,15.94300227586223,14.76547154539347,191.18,-0.22401390008627686,7
14.393735870000908,-42.56935549815847,-24.19613307521511,54.86343401932052,-36.19751822214594,17.290570599399114,16.415266306798973,191.184,-0.22001390008628618,7
16.381580275236793,-49.389183229671666,-21.53998281278021,56.891196005112675,-43.15707744480157,20.929472878531577,19.883994328372427,191.188,-0.2160139000862955,7
18.982277679931443,-57.25393646493857,-18.585819911522506,59.079310250326884,-51.66387060347218,25.4692042489881,23.97283480068683,191.192,-0.2120139000862764,7
21.299111660523927,-63.13892568259203,-16.834111017752683,60.57763804160427,-58.18156392433223,29.023748109472017,27.25410281307671,191.196,-0.20801390008628573,7
22.67765214389789,-65.44775807795561,-16.836525761881564,60.967893558589985,-60.65020296396866,30.477694566498958,28.811246534819013,191.2,-0.20401390008629505,7
23.00765430301104,-64.70067777537821,-17.779879283379394,60.40981904172674,-59.64227168606022,30.131928972160424,28.573426427919628,191.204,-0.20001390008627595,7
22.606226512176292,-62.625108599798544,-18.23901487823529,59.39633986619278,-57.427727542032606,29.197827263036825,27.09145737866053,191.208,-0.19601390008628528,7
21.869653743325234,-60.59977888034817,-17.455454666895665,58.36230094861278,-55.888702250232676,28.654542174627156,25.057438930911342,191.212,-0.1920139000862946,7
21.055015413936534,-58.92284832733612,-15.974634043227764,57.4986472015895,-55.24177898647164,28.552237689307212,23.033361052202263,191.216,-0.1880139000862755,7
20.34045189213246,-57.421879671499845,-15.066909301166737,56.89039030561132,-54.620300576650536,28.342431204370875,21.53581614720244,191.22,-0.18401390008628482,7
19.959810451876457,-56.45718777809349,-15.510217036697588,56.737877085802495,-53.634487968484585,27.75089387998001,21.153311365616716,191.224,-0.18001390008629414,7
20.12547693040028,-56.965864817140734,-16.892625748553552,57.31933446456397,-53.073146218632715,27.187851843552135,22.298973545810604,191.228,-0.17601390008627504,7
20.751482952869278,-59.34509650157247,-18.041231617640772,58.65279494306451,-53.95156042245404,27.256657518524673,24.6769531272088,191.232,-0.17201390008628437,7
21.323700972453686,-62.456735782995985,-18.079425937135426,60.22080239875276,-56.030397743325004,27.956075096998365,27.065980995251614,191.236,-0.1680139000862937,7
21.208597015612696,-64.15209027330751,-17.06891582698283,61.1669091916516,-57.626199189877774,28.541445246563676,27.930253836340153,191.24,-0.1640139000862746,7
20.23736317063818,-63.16860289464684,-15.707346018212297,60.932781393868225,-57.177641551026646,28.29375059643534,26.589695302944,191.244,-0.1600139000862839,7
19.01860533237613,-60.60595341601478,-14.534468266941586,59.790850445634476,-55.03258270811454,27.40709003905545,23.956458574004863,191.248,-0.15601390008629323,7
18.58255666581843,-59.29869027958884,-13.5222340196292,58.70758844473773,-53.472187204195386,26.988034933157074,22.014931459700183,191.252,-0.15201390008627413,7
19.568975575465796,-61.37165056365382,-12.404508619175411,58.55813958631979,-54.69759974469718,28.047518823899708,22.299124941841132,191.256,-0.14801390008628346,7
21.650973916097648,-66.1781718802872,-11.263176663954155,59.37023339782036,-58.65430543874034,30.444005119639595,24.63044154942408,191.26,-0.14401390008629278,7
23.726214687782264,-70.64790452561458,-10.645941138633518,60.31972968606707,-62.87413374495778,32.85174624878848,27.270288786568035,191.264,-0.14001390008627368,7
24.72161302976878,-71.8260865347191,-11.07002617740134,60.514948319671234,-64.55952010292724,33.82280078524451,28.396270680363134,191.268,-0.136013900086283,7
24.30531347281965,-69.24536156187449,-12.486820579375662,59.8278122528305,-62.88575786753197,32.915579527196705,27.56923475593527,191.272,-0.13201390008629232,7
22.919649690623896,-64.91045520296325,-14.335530693597324,58.948513546131096,-59.287772541538786,30.816060514498233,25.84953468684612,191.276,-0.12801390008627322,7
21.210647140557633,-61.01762369944969,-16.14618607239159,58.59039099606831,-55.57378471738792,28.426326598365403,24.510229754237844,191.28,-0.12401390008628255,7
19.469168089554717,-57.75624699218028,-18.01398966170355,58.64018274375542,-51.93407158069561,25.94029840714628,23.65465899412304,191.284,-0.12001390008629187,7
17.59981703343108,-53.413820459965656,-20.37898046579178,58.15450787908996,-46.980161949004284,22.883782848227565,22.134855114013124,191.288,-0.11601390008627277,7
15.543280608503816,-46.65173445915281,-23.30610436141593,56.2927822325243,-39.78545571346896,19.03150632192433,18.875725371085267,191.292,-0.11201390008628209,7
13.625030775494334,-38.605198049088564,-26.05020360000928,53.32028910006819,-31.747401192389827,15.160576750361884,14.29690621556328,191.296,-0.10801390008629141,7
12.432905368258087,-32.603322978468114,-27.45292007286455,50.67008208972908,-26.187450769609402,12.755951884972962,10.384754477981959,191.3,-0.10401390008627232,7
12.35574629449472,-31.64310354145298,-26.87422513889587,49.903206028168334,-25.860704150492456,12.872678777396777,9.246401730781479,191.304,-0.10001390008628164,7
13.26674987226335,-35.94386281122602,-24.782755743688348,51.454568734311714,-30.66536347221596,15.240621539342463,11.430041881212816,191.308,-0.09601390008629096,7
14.659565526508846,-42.81402566523841,-22.424749123513696,54.28235470884857,-37.69049087297841,18.46991374810457,15.517431678268533,191.312,-0.09201390008627186,7
16.067926967462327,-48.848449380535584,-20.869929546750424,56.72021064616781,-43.51065146987886,21.140194539540307,19.300698243994404,191.316,-0.08801390008628118,7
17.340346717740186,-52.36334168096421,-20.31020726333507,57.74501983829109,-46.57950034813037,22.74284548797672,21.42483724842166,191.32,-0.0840139000862905,7
18.54659951262302,-53.968456713886866,-20.200551258471275,57.54904340329223,-47.67232316970892,23.681427832467065,22.06426039368473,191.324,-0.0800139000862714,7
19.699409538594406,-55.11487816394594,-19.99975597823247,57.019101020344586,-48.33413650246573,24.50818831705386,22.222071768651283,191.328,-0.07601390008628073,7
20.633587010780662,-56.32482197823333,-19.736492952565552,56.751893431448195,-49.11434562157409,25.260607733789154,22.52957237635497,191.332,-0.07201390008629005,7
21.155983818019887,-56.83552767779059,-19.88919258794852,56.58341938029351,-49.27581761073911,25.517462115347875,22.743672562816947,191.336,-0.06801390008627095,7
21.25605896620293,-55.75278472153167,-20.798334909741722,55.99829651969324,-47.96569578369203,24.974375252710697,22.288084676358523,191.34,-0.06401390008628027,7
21.117304420391644,-53.292507157613755,-22.2592183321972,54.87620821131242,-45.39004829443693,23.843525101087998,21.104736051455827,191.344,-0.060013900086289595,7
20.925220645561183,-50.77365398529444,-23.673359748383056,53.74158560257789,-42.74989111824537,22.676542703901887,19.853555899881933,191.348,-0.056013900086270496,7
20.710213593456547,-49.454221840449485,-24.51658672813998,53.25811763962269,-41.148302272463326,21.884314337616196,19.266465270357358,191.352,-0.05201390008627982,7
20.40887611452465,-49.492913690937435,-24.594442117036596,53.52195171641452,-40.72774201364682,21.514242997555826,19.37002699312586,191.356,-0.04801390008628914,7
20.049168103501696,-50.076515545970075,-23.88042947974062,53.91739059588902,-40.89316532528114,21.471716262263666,19.411835389337476,191.36,-0.04401390008627004,7
19.802173312684513,-50.447981011540264,-22.267961893387003,53.70969237140576,-41.19828380101166,21.818202528006708,18.584158493841944,191.364,-0.040013900086279364,7
19.79831508161518,-50.641001883617044,-19.685992654563567,52.78212128816603,-41.778565987507434,22.697925332273783,16.827198823633047,191.368,-0.036013900086288686,7
19.90575675899023,-51.12687417731308,-16.56964058023356,51.7652357764517,-42.82615761951127,23.92664390632502,14.925035935290945,191.372,-0.03201390008626959,7
19.756926120054498,-51.82127615280148,-14.136168902417435,51.41125502883985,-43.77455926135729,24.755302682070717,13.808520485611147,191.376,-0.02801390008627891,7
19.057593374220144,-51.6329543365646,-13.9308314599148,51.82005486713685,-43.2638912870539,24.223016473223744,13.727012368952565,191.38,-0.02401390008628823,7
17.884729402769633,-49.19039444662114,-16.765739490312743,52.27521892850427,-40.13981688014531,21.902348540880975,14.033653944924316,191.384,-0.020013900086297554,7
16.648973580847553,-44.13952887321135,-21.87159424447001,51.859884860285916,-34.59038388765264,18.363222148288056,13.72942641591247,191.388,-0.016013900086278454,7
15.729944509643536,-37.761620321675075,-27.08871094918463,50.2826865419866,-28.2883811986524,14.87504388700583,12.251037530876149,191.392,-0.012013900086287777,7
15.147769327996924,-32.271582321347545,-30.128952217110776,48.16540182805551,-23.341146911017233,12.566597187490293,9.861913105932834,191.396,-0.008013900086297099,7
14.619553292653652,-29.389320964428777,-30.014738892171728,46.56433884085701,-20.97783385572501,11.766954573382817,7.431047005432029,191.4,-0.0040139000862779994,7
13.951570010027496,-29.395447801644785,-27.59493546262188,46.18413367089437,-21.074145927162345,12.048706612251099,5.880118898256046,191.404,-1.3900086287321756e-05,7
13.34370707751404,-31.329160973229882,-24.77194112654288,46.952660832543295,-22.71545421674501,12.805088712007755,5.715099694452658,191.408,0.003986099913703356,7
13.244067825740773,-33.905317601223395,-23.11105662856065,48.226775489894784,-25.030762584882506,13.728381155170396,6.847912343860615,191.412,0.007986099913722455,7
13.859121818933236,-36.23454850483358,-22.928725742781282,49.33836479019015,-27.492209632753866,14.776313927750747,8.6816833434946,191.416,0.011986099913713133,7
14.827107882921915,-37.922311423744276,-23.433978071836034,49.99556555373159,-29.69419440476634,15.84084601033857,10.386964453354581,191.42,0.01598609991370381,7
15.457820439273496,-38.91319447011171,-23.56681092401206,50.31644246239366,-31.283302840032857,16.663180816718167,11.325864515771311,191.424,0.01998609991372291,7
15.388679394848147,-39.58586825650479,-22.709954596633676,50.63318979208871,-32.41071570816182,17.19771361296569,11.486955761397732,191.428,0.023986099913713588,7
15.040481309177473,-40.975747201030444,-20.802445151070387,51.29731499946128,-34.178654534885084,17.99482635108812,11.62422422725905,191.432,0.027986099913704265,7
15.369358748954259,-44.46497222006221,-18.084718340621713,52.54660828145771,-38.19005864626081,19.988553346071434,12.835228830461334,191.436,0.031986099913723365,7
17.0471639568651,-50.66371032948573,-14.98814862906773,54.36304918777668,-45.10976161862257,23.635452384820315,15.715955047713948,191.44,0.03598609991371404,7
19.77431037628507,-58.263890446191,-12.296670634390942,56.34578432556946,-53.3973942421888,28.131816537346218,19.70604408357,191.444,0.03998609991370472,7
22.374017179646295,-64.17767885481128,-11.168366405171808,57.786744657277424,-59.67081861132535,31.58745239638954,23.26864963799517,191.448,0.04398609991372382,7
23.648827500945686,-65.41711638172661,-12.606036165274363,58.07181481029468,-60.90845909724047,32.269415675695676,24.941553657305388,191.452,0.0479860999137145,7
23.298788182614263,-61.5021916285151,-16.589066827372,57.204500081029984,-56.912839871708634,29.998112223103462,24.502697840848036,191.456,0.051986099913705175,7
22.132980986121396,-55.33142048993218,-21.654684645315484,55.99542937224649,-50.89450853303362,26.48720496674731,23.26499834316608,191.46,0.055986099913724274,7
21.415573206865794,-51.47546663759288,-25.52881440279568,55.629414438309816,-47.43980377907067,24.234588325938457,23.16450884834516,191.464,0.05998609991371495,7
21.917043141109456,-53.02978706921464,-26.50884701727478,56.847703161463855,-49.3529292135387,24.804640584230224,25.32217641322459,191.468,0.06398609991370563,7
23.44144983884089,-59.50389636229993,-24.54226886496057,59.38240990577733,-55.87197767948479,27.864966335396147,29.229316826730937,191.472,0.06798609991372473,7
25.13077882190218,-67.4023851510857,-21.125224122076336,62.124910998988696,-63.57616461771518,31.66756303702261,33.18052103296374,191.476,0.0719860999137154,7
26.1772517217715,-72.8641531975214,-18.154267136877525,63.89670467101597,-69.00644886798895,34.42641437342798,35.52449843617244,191.48,0.07598609991370608,7
26.31212079141192,-74.0851011000095,-16.746162426631845,64.18515173922727,-70.72902948368895,35.38254135276442,35.68047912692668,191.484,0.07998609991372518,7
25.76083051633377,-71.72992467965145,-16.94711351024846,63.2856368052361,-69.38870731308887,34.81562323424025,34.20365494717863,191.488,0.08398609991371586,7
24.882485003238376,-67.54260507982336,-18.31709250313684,61.86210284015598,-66.29250896996264,33.31801197540604,32.089606734122434,191.492,0.08798609991370654,7
23.927293338877206,-62.87189950320318,-20.56929794876914,60.42972101144472,-62.24786895191983,31.23688561356638,30.095166440003833,191.496,0.09198609991372564,7
23.096825727440752,-58.455303804176665,-23.566499884857958,59.21541891840191,-57.711612026204044,28.801068296608154,28.620102772787863,191.5,0.09598609991371632,7
22.69962474510413,-55.153121116044694,-26.825302917452262,58.371270995798255,-53.657788254643236,26.580746131358396,27.984570415879418,191.504,0.099986099913707,7
23.088177458582976,-54.24926595710931,-29.299465334013664,58.1399172602059,-51.742855427138764,25.529340400381027,28.53415159909185,191.508,0.1039860999137261,7
24.33821881668795,-56.55768577639213,-29.92567436624964,58.68793169348747,-53.179916214949046,26.334405905024024,30.302719942391384,191.512,0.10798609991371677,7
25.976663584747364,-61.137025516360396,-28.537732729732753,59.77211336028857,-57.295338702236485,28.63097622167606,32.59034378161764,191.516,0.11198609991370745,7
27.101598155234377,-65.15609728419626,-26.244820218148167,60.670005487474135,-61.34359017235361,30.91858464214649,34.054319389843045,191.52,0.11598609991372655,7
26.908482015633925,-65.49903512680514,-24.792057296584122,60.58318550153928,-62.11928055029561,31.445474759782815,33.473230696728855,191.524,0.11998609991371723,7
25.2518283321208,-60.98648681931883,-25.360353196636822,59.234674503813395,-58.22571769226215,29.432319722721758,30.653735149561847,191.528,0.1239860999137079,7
22.797015758165237,-53.357998862442116,-27.778306436335615,57.1390641811891,-51.167425113404356,25.65977273596732,26.707877736860425,191.532,0.127986099913727,7
20.62510120215394,-46.155114673528246,-30.732695673326393,55.28184998958067,-44.37346874044306,21.955387847598917,23.398940047964178,191.536,0.13198609991371768,7
19.573728075483373,-42.401958401051054,-32.70684831663306,54.453104317856706,-40.929482671991416,19.99604320518941,22.015413791146027,191.54,0.13598609991370836,7
19.779353271491473,-42.86650938228161,-32.87584685647503,54.75680652191394,-41.716096845213315,20.317023151393446,22.60527013917111,191.544,0.13998609991372746,7
20.705679119622427,-46.01438189697809,-31.409558520052375,55.63146659360611,-45.15604025882291,22.155344849172806,24.087490113452034,191.548,0.14398609991371814,7
21.575677840264987,-49.33319857134842,-29.20451247418983,56.28656608464731,-48.47697751687697,24.08306744481978,25.06937719268314,191.552,0.1479860999137088,7
21.863279681174937,-50.83771171519297,-27.38886783902905,56.18388163350733,-49.435053667722606,24.891928044362135,24.72254386290022,191.556,0.1519860999137279,7
21.51579694909537,-49.818281047003914,-26.85688592711897,55.25998646233743,-47.410162935230396,24.172497500634837,23.137048997285635,191.56,0.1559860999137186,7
20.81632824862488,-46.722614874037106,-27.90841496901788,53.8461425878655,-43.41599283316524,22.349355205608656,21.035196634121185,191.564,0.15998609991370927,7
20.059587998013786,-42.60524718965138,-30.084895867643024,52.42999736711427,-39.25093496675737,20.27679385291386,19.17469880600987,191.568,0.16398609991372837,7
19.320525900006103,-38.5582375364532,-32.38238269599688,51.41584691715787,-36.384352764133595,18.68756531734744,17.901034862072258,191.572,0.16798609991371904,7
18.486453032347065,-35.30107928311019,-33.86665871162868,50.96950981580874,-35.21062645023561,17.8134378320615,17.108963764757178,191.576,0.17198609991370972,7
17.49323360960314,-33.01926150858248,-34.319751305081844,50.99029931008451,-35.07847783564306,17.38887430997378,16.54508341964597,191.58,0.17598609991372882,7
16.530305353000955,-31.535198103408447,-34.3502120992564,51.22748244384991,-35.04589090864066,17.01714664411932,16.15636667033533,191.584,0.1799860999137195,7
15.997280814199879,-30.720486567494014,-34.77249264534573,51.486203820320895,-34.78581808378076,16.607648903202517,16.18766375889723,191.588,0.18398609991371018,7
16.203089607854302,-30.771519746730487,-35.766700276165615,51.77293508189653,-34.86863277747466,16.492306279140085,16.938521831479854,191.592,0.18798609991372928,7
17.03623697318734,-31.964655453201328,-36.6488231748526,52.23645900129559,-36.0876480377516,17.060228046694498,18.368202644628102,191.596,0.19198609991371995,7
17.899025046486166,-33.989273521903,-36.56831481739427,52.928423573814385,-38.35629693254089,18.194716475411926,19.89172017612568,191.6,0.19598609991371063,7
18.015974652612734,-35.537256736807485,-35.51108624350515,53.608023741589484,-40.24396884689544,19.065954115572875,20.60235931743299,191.604,0.19998609991372973,7
16.93240020745939,-34.82406313754454,-34.568211151153854,53.82657637159301,-39.80865758485139,18.608010724659895,19.833944569837488,191.608,0.2039860999137204,7
14.853548929740112,-30.926250564382464,-35.05553237132079,53.28245298554986,-36.23241548953799,16.404640634164423,17.673555875786864,191.612,0.2079860999137111,7
12.576414702997171,-24.89168259264043,-37.21470280621742,52.143257012814075,-30.87071953207603,13.24634985131115,15.01108336381148,191.616,0.21198609991373019,7
11.051113428179868,-19.474965065898463,-39.762278459761205,50.9968553952833,-26.6082807053915,10.774139488266863,13.023415919321156,191.62,0.21598609991372086,7
10.851416765094319,-17.371472348586423,-40.862219235192065,50.40266825113775,-25.784183587270686,10.345445972661413,12.418344182155709,191.624,0.21998609991371154,7
11.868208902656056,-19.181565520407542,-39.7510286426921,50.407526915601686,-28.27455340190926,11.960917768211827,12.970493978539356,191.628,0.22398609991370222,7
13.380265734386766,-22.793848279293737,-37.52060818004442,50.48152680835579,-31.388648528084033,14.148164779298371,13.693147665381279,191.632,0.22798609991372132,7
14.44352453758664,-24.883980213729743,-36.223468778180525,49.988497557259194,-31.86148943233618,14.999081591843007,13.537834737557606,191.636,0.231986099913712,7
14.39348122422992,-23.504696036929605,-36.98172487194815,48.81463775938951,-28.48831996513058,13.632235629865264,12.13438626052365,191.64,0.23598609991370267,7
13.208139961977619,-19.727132621650863,-38.78074536943274,47.5903235955847,-23.294538812521722,10.94977243013219,10.054180815910826,191.644,0.23998609991372177,7
11.525610149997359,-16.910687213870595,-39.14569054693059,47.255742037272014,-20.17459693622054,9.035709553425358,8.413912956326984,191.648,0.24398609991371245,7
10.261731104809185,-18.023660525691387,-36.28669503473713,48.286097979667815,-21.900277791793922,9.56844595757105,8.094358310174401,191.652,0.24798609991370313,7
10.011773489265783,-23.05673306930799,-30.944687306677483,50.212106100656364,-27.7543837146014,12.419739335399589,9.112185165265144,191.656,0.25198609991372223,7
10.61938295039826,-28.626847828807552,-26.286369185091857,51.855577993658294,-33.68922320639165,15.549275013360992,10.578204262873522,191.66,0.2559860999137129,7
11.25963026297566,-30.235470867148436,-25.749752936027242,52.12467215307221,-35.04861927383408,16.372749437086483,11.276791223875424,191.664,0.2599860999137036,7
11.041868400888978,-25.558502285493642,-30.458623833399887,50.76545724079099,-29.91433696751279,13.64703134529626,10.477106099430095,191.668,0.2639860999137227,7
9.705159569137736,-16.25895555732427,-38.26037099998312,48.51284399239917,-20.573756818114415,8.451465542102703,8.423614271782215,191.672,0.26798609991371336,7
7.8367030540925,-6.8837175714088,-45.19751789019252,46.562822843705916,-11.951919516654668,3.46699621194044,6.166632868517154,191.676,0.27198609991370404,7
6.391402897755408,-1.642157714989093,-48.293394196709585,45.787158264041075,-8.134406685719146,1.0485051430132342,4.842892292608133,191.68,0.27598609991372314,7
5.887783270834355,-1.5100230867829634,-47.4940481637413,46.24351369310257,-9.575449214210526,1.5536279001024542,4.894595600695428,191.684,0.2799860999137138,7
5.97248833582595,-3.8299630288852744,-45.31528877119843,47.250887697566945,-13.059492639786969,3.222375804549542,5.758992601928252,191.688,0.2839860999137045,7
5.750305932280476,-4.598248854639696,-44.608381896478605,47.88494697220034,-14.342116208150166,3.675143893721694,6.238350161065987,191.692,0.2879860999137236,7
4.5945550031647775,-1.5420448310460821,-46.33239104961269,47.524464621012015,-11.333997449863285,1.7920601636050306,5.297353542740252,191.696,0.29198609991371427,7
2.705727094676681,4.410843586772592,-49.0962455431221,46.1464777426747,-5.370755532413851,-1.5476035428207338,2.751556194232764,191.7,0.29598609991370495,7
0.9119559185718076,10.234562574845645,-50.66367206915911,44.280788388284655,0.23471506908572445,-4.393200312676749,-0.605149568951949,191.704,0.29998609991372405,7
-0.08840166884815089,13.337192483244523,-49.977171903308495,42.70873776166556,2.9442434815614322,-5.425071314686134,-3.4995288396287143,191.708,0.3039860999137147,7
-0.3201413877683797,13.365975229556724,-47.94790252751296,42.06650711015426,2.716849508616682,-4.9326297448078735,-4.948658188238438,191.712,0.3079860999137054,7
-0.40627201626673126,11.96480748462768,-46.4694005744124,42.53314890100693,1.445887742705753,-4.293161010881244,-4.775010526779964,191.716,0.3119860999137245,7
-0.8701056870804573,10.99515417138144,-46.6965331717272,43.765155260433154,0.8974350097051379,-4.54879880184469,-3.5423067808673676,191.72,0.3159860999137152,7
-1.5639985127373894,10.933114265326918,-48.16807421004151,45.135263086490816,1.128385982850791,-5.444794412788451,-2.0198961991011317,191.724,0.31998609991370586,7
-1.7948337740516178,10.77810015413204,-49.442513695643875,46.1386573711661,0.7342773112141151,-5.782240081847489,-0.631447284969218,191.728,0.32398609991372496,7
-1.0314084630436176,9.34196399453535,-49.49728597176374,46.6767295944013,-1.4843950492065594,-4.676228776254969,0.6706246713322591,191.732,0.32798609991371563,7
0.49294401626017914,6.604267344763906,-48.546926549001654,46.99355314137945,-5.100427174973652,-2.4928280164671546,2.049417238038943,191.736,0.3319860999137063,7
1.8751880209862288,3.9036713442600504,-47.63558801300101,47.32945476990084,-8.211615599544473,-0.5980970395554317,3.3369865169538335,191.74,0.3359860999137254,7
2.2656470178573698,2.876052437014341,-47.57480613029953,47.62560453272239,-8.98561106373914,-0.19465010412663553,3.9877633105712365,191.744,0.3399860999137161,7
1.5614151564975305,4.151095033450295,-48.32826283952362,47.57949938640633,-7.165028511240369,-1.3441506093958666,3.5454323838057284,191.748,0.34398609991370677,7
0.4516440960931892,6.936671057683274,-49.352174636893515,47.00540724759488,-4.208342368207046,-3.0347296646196935,2.201524268348914,191.752,0.34798609991372587,7
-0.1939240087579866,9.75015699041042,-50.37240241013947,46.1271378404319,-2.0285647492864833,-4.139247351442932,0.8568436887845727,191.756,0.35198609991371654,7
-0.012062010405546858,11.539864834313395,-51.67879408115515,45.476359329019786,-1.5358160908730762,-4.31208927500176,0.52253729410237,191.76,0.3559860999137072,7
0.6990605499370639,12.172607816965929,-53.60310708836622,45.47186125719543,-2.2821383285710506,-4.012893876066321,1.5546096689052158,191.764,0.3599860999137263,7
1.4368041358689831,11.934335367202728,-55.766531585941806,46.10186554810973,-3.420181670828907,-3.7320102368075365,3.4457184423968426,191.768,0.363986099913717,7
2.0762538313671137,10.666657227059236,-56.98014439031477,47.03479238500848,-4.943577760913733,-3.255333160332283,5.401351868126001,191.772,0.3679860999137077,7
3.004902253719452,7.551568948716602,-56.06195095391183,48.01958072471639,-7.906692412110867,-1.7443272411431656,7.1369186800134585,191.776,0.3719860999137268,7
4.679555276332328,1.9714340756338935,-52.918797783231625,49.10264556458358,-13.273198967628447,1.386695458629167,9.051666375681139,191.78,0.37598609991371745,7
7.019527569175449,-5.219552062739681,-48.91840542865857,50.37928086181785,-20.37811403214366,5.59035595989848,11.526907132650159,191.784,0.37998609991370813,7
9.209135634404612,-11.293404759161783,-46.14300950784587,51.5427505416267,-26.50593991064338,9.157612415429872,14.03285558618985,191.788,0.38398609991372723,7
10.136054276572033,-12.87355543655849,-46.045512173242194,51.79919524606915,-28.264084509346766,10.196281446600254,15.051621149906019,191.792,0.3879860999137179,7
9.155686484229319,-8.175229039041445,-48.511959590823764,50.39531894715423,-23.89847738612252,7.920647219204029,13.114013365400163,191.796,0.3919860999137086,7
6.594652754132755,1.4323334345406569,-52.00481791795127,47.34276039370748,-14.756757240098002,3.2634179201371456,8.128410655531269,191.8,0.3959860999137277,7
3.5984225126811444,11.971409072179084,-54.643777512443755,43.61904187531775,-4.627124204207022,-1.6815094236661614,1.7635376801389862,191.804,0.39998609991371836,7
1.420304818060409,19.35109084110948,-55.430401278000765,40.55823671439785,2.6728968683298384,-4.993829873894823,-3.578298090001985,191.808,0.40398609991370904,7
0.6579979197566151,21.995318025279914,-54.781343027709674,38.92457656014136,5.655837390570939,-6.070560892091414,-6.381825975947721,191.812,0.40798609991372814,7
0.9707655738622307,21.54467273006122,-54.06220700173788,38.49545658576653,5.69210474795339,-5.777103130142708,-6.863689505762764,191.816,0.4119860999137188,7
1.4476900084546596,21.10563227387263,-54.50868928789567,38.49689739919203,5.429228492508449,-5.573718338458808,-6.3970405476732735,191.82,0.4159860999137095,7
1.3198646830064056,22.583986369954467,-56.32419902008594,38.40645338335129,6.545153386160866,-6.3550146086798405,-6.1762441937072365,191.824,0.4199860999137286,7
0.4714740757659601,25.398512985496716,-58.60004813928368,38.31194753951644,8.727892884071496,-7.910402162261264,-6.399377183305643,191.828,0.42398609991371927,7
-0.6152906332165186,27.58411461930504,-60.10124683951033,38.52598485478723,10.572043726674057,-9.358913184367088,-6.606692543672364,191.832,0.42798609991370995,7
-1.3862903139550589,28.090474619780405,-60.29920820590176,38.96542396724353,11.329956676313058,-10.09144309219643,-6.6089136512837054,191.836,0.43198609991372905,7
-1.7401838812670853,27.99817762260061,-59.80968044499743,39.052369347252586,11.75287570702589,-10.35173069604279,-6.901827654571751,191.84,0.4359860999137197,7
-2.0963264905070456,29.448972144864907,-59.84112043726559,38.30828584176462,13.231006299898398,-10.945159996076946,-8.105657362678336,191.844,0.4399860999137104,7
-2.954770589979901,33.32578488558194,-61.082333312159555,37.013231837446035,16.14456920719156,-12.369778389178261,-10.076703638901792,191.848,0.4439860999137295,7
-4.34912955416274,37.98438692641489,-62.9851517557188,36.152955489516934,19.134035642828923,-14.200338877189951,-11.736757871689235,191.852,0.4479860999137202,7
-5.695475951753105,40.38758482524091,-64.11945491644492,36.575099311456476,20.116045632987117,-15.331333597885061,-11.932465303601377,191.856,0.45198609991371086,7
-6.193922379046167,38.699850071201084,-63.35966051744377,38.124200287167035,18.155151104810155,-14.89142983197557,-10.534188734712725,191.86,0.45598609991372996,7
-5.447465790012862,33.95385329370122,-60.88876135452273,39.63795452937491,14.410402269754615,-13.005302039465295,-8.660680908829804,191.864,0.45998609991372064,7
-3.76841240964016,29.205741723033455,-58.10902904526255,39.90506657218085,11.192644495491574,-10.698918729769334,-7.727092606033815,191.868,0.4639860999137113,7
-1.9227048723484872,26.91279330407199,-56.49418184031117,38.753311034901614,9.939924884351555,-9.024460304545958,-8.164682206119515,191.872,0.4679860999137304,7
-0.5577382189545427,26.91147971260347,-56.3741963832517,37.26794032884423,9.96598538358951,-8.200944960837178,-9.012525861993762,191.876,0.4719860999137211,7
0.18427074625433287,26.807112705896884,-56.7243146143948,36.912187774806725,9.157939590574612,-7.551562875931277,-8.785633327206464,191.88,0.47598609991371177,7
0.5704726262877845,24.36474783265201,-56.13879520818218,38.30902847393179,6.018512972632236,-6.279518767458608,-6.84444792986302,191.884,0.47998609991370245,7
0.8578841889578287,19.699583553367027,-54.117910154865804,40.732435749905754,1.2177760787346605,-4.351189192361058,-4.0385802237383714,191.888,0.48398609991372155,7
0.9833820410412561,15.321494041228899,-51.54477488453316,42.71003741275383,-2.741096013114928,-2.664893413690451,-2.06414918368542,191.892,0.4879860999137122,7
0.6512654334046561,14.06523502569159,-49.98228276205389,43.18019938535098,-3.4613024763214866,-2.3453423441751236,-2.107772261896691,191.896,0.4919860999137029,7
-0.29270085930098744,16.768384539661294,-50.45523602511785,42.23306150251953,-0.5387503743093024,-3.791797753207149,-3.922961030245497,191.9,0.495986099913722,7
-1.5787044018178074,21.641250939869675,-52.757384297806354,40.900643560859194,4.149173336718788,-6.3063678204645415,-6.048611317358925,191.904,0.4999860999137127,7
-2.601259713886005,25.69157385041432,-55.76483885372448,40.285147350518145,7.884159380357096,-8.593146409886877,-6.901635603792161,191.908,0.5039860999137034,7
-2.813514174699872,26.85717428205578,-58.340412046345584,40.7921079278918,9.003263150509385,-9.670840881567239,-5.827778257844246,191.912,0.5079860999137225,7
-2.0981958112077543,25.125869111048946,-60.00767310837046,42.02451080132635,7.757105647745401,-9.44623295701602,-3.355383683526419,191.916,0.5119860999137131,7
-0.8219221739309228,22.003289289049007,-60.935558732891295,43.27690816677393,5.649513604759225,-8.557349232828516,-0.6148809209313814,191.92,0.5159860999137038,7
0.44681315055491033,19.090910654832857,-61.45055535377634,44.11412249702495,4.035786763376207,-7.729565287585732,1.4924875755731801,191.924,0.5199860999137229,7
1.3147082911776131,17.050874114281736,-61.62938033800805,44.56389320091225,3.203170665752115,-7.232162419901943,2.7288964857863136,191.928,0.5239860999137136,7
1.750176213537581,15.62129489533177,-61.301153588125715,44.86865836637727,2.554840220220201,-6.839995960175441,3.3461798528343643,191.932,0.5279860999137043,7
1.9728016568716407,14.34506801486256,-60.336343747145214,45.12408952490064,1.5146932682606504,-6.22768969398132,3.6073809762310716,191.936,0.5319860999137234,7
2.181037328456648,13.18110496041278,-58.8791286145656,45.17296559946054,0.23031995301029412,-5.381037121344047,3.4947378945694276,191.94,0.535986099913714,7
2.3701272950614385,12.465012061174601,-57.321731887391465,44.83660965184276,-0.5559253307613005,-4.651853902600643,2.8577621126746346,191.944,0.5399860999137047,7
2.3994484055843146,12.370936781712764,-56.09147310071397,44.229656670883955,-0.30452914032143674,-4.42404450152199,1.8200048843763865,191.948,0.5439860999137238,7
2.237442715719419,12.480982340727529,-55.44795780808123,43.81089238543744,0.6308197085715449,-4.704864204012149,0.9926848616374653,191.952,0.5479860999137145,7
2.1287923482351117,11.962107877263673,-55.41739488578996,44.053716270209314,1.1330781277290618,-5.035180091687327,1.1748803540401747,191.956,0.5519860999137052,7
2.466484671691059,10.301670406677772,-55.85916813201153,44.98358243776209,0.28273274087948824,-4.856607555768509,2.6813054307696866,191.96,0.5559860999137243,7
3.4192712129287894,7.990044276179189,-56.58342330084987,46.01012774967779,-1.6358682678004284,-4.061584778523794,4.861433108388339,191.964,0.559986099913715,7
4.6484118310543385,6.427212272626991,-57.42495187570252,46.29008469429331,-3.0746031275896475,-3.2166644423579958,6.350510647675548,191.968,0.5639860999137056,7
5.45555908448596,6.864687481968899,-58.206605876547876,45.41107630508204,-2.420605496058715,-3.1438847843759103,6.039773285445639,191.972,0.5679860999137247,7
5.34973705223588,9.070626012105457,-58.613017459439,43.852699111553704,0.3644246005617013,-4.097675604581454,4.073206287563741,191.976,0.5719860999137154,7
4.578874584897145,10.905272849220237,-58.12623782744697,42.7837840445361,3.11124089024166,-5.245968538697819,1.9930339972496782,191.98,0.5759860999137061,7
4.0831724468185016,9.508881517126008,-56.21708791785511,43.268405650371285,2.671764478400904,-5.062987342091791,1.747851167230232,191.984,0.5799860999137252,7
4.77431498320971,3.4979984749242243,-52.79869293914797,45.4690889874391,-2.6641355502411264,-2.5123219829579013,4.233748026773975,191.988,0.5839860999137159,7
6.687023293242654,-5.523143020173915,-48.61562341451281,48.48810459012777,-11.452518414453932,1.8904355182411676,8.5257214475291,191.992,0.5879860999137065,7
8.773892354734977,-13.583559222693347,-45.106799177799395,50.985293308480244,-19.65917350422722,6.126706575181795,12.463639666322965,191.996,0.5919860999137256,7
9.62365632710573,-16.903607812830284,-43.61837758231633,52.067202530275104,-23.2876632964402,7.975648566914366,14.143141267291638,192.0,0.5959860999137163,7
8.558373325229606,-14.469656138514313,-44.46642727633459,51.73218304632434,-21.052456119434144,6.592670933906537,13.105312228822593,192.004,0.599986099913707,7
6.173291199369192,-8.531266307613981,-46.653735130024856,50.58112755272289,-14.949630113189981,3.055604840575805,10.324607958160962,192.008,0.6039860999137261,7
3.8421805525685055,-2.6523387299051118,-48.59426658028316,49.17304074490263,-8.376432741605413,-0.5799434531888915,7.187760207511481,192.012,0.6079860999137168,7
2.6341124730066627,0.9086550684254939,-49.287180315978496,47.68350782523653,-3.5908143028598687,-2.8540590708557287,4.505778323025442,192.016,0.6119860999137074,7
2.6101701581765315,2.1842157675366245,-48.88545442068926,46.145189014094335,-0.7647104252672473,-3.6982019977537646,2.4087919039028125,192.02,0.6159860999137265,7
3.0833741101220733,2.2040984631984957,-48.12157389802542,44.8968978446422,0.7973670809215001,-3.8355539823514864,0.9753903814926697,192.024,0.6199860999137172,7
3.5007425256760927,1.0424828313344143,-47.18592342950839,44.61744342332613,0.884484362481678,-3.5469120524317512,0.6876823391218536,192.028,0.6239860999137079,7
4.041158432952112,-2.577096080217574,-45.274535614094866,45.76078576902853,-1.856950986993348,-2.163749915288416,2.070388394613597,192.032,0.627986099913727,7
5.357546551381057,-9.62944543468917,-41.40088696599924,47.91537667124477,-8.266156993585216,1.1489618274109044,4.874604344236919,192.036,0.6319860999137177,7
7.773840907309751,-18.91215043164041,-35.72453514492216,49.83582464842241,-16.946233891866243,6.160052530134404,7.813201382562263,192.04,0.6359860999137084,7
10.790021732805968,-27.225796709384767,-29.957761675211838,50.32712548541163,-24.61195934187641,11.285894899286221,9.392475608969221,192.044,0.6399860999137275,7
13.424020529605626,-31.870089108795714,-26.20003376010786,49.29422474816855,-28.609960146448323,14.735716839769506,9.2261208978082,192.048,0.6439860999137181,7
15.072992933754392,-33.19685988632846,-25.14698770106129,47.96907407269449,-29.34221674557226,16.080340111826843,8.563657214686273,192.052,0.6479860999137088,7
16.057584862586932,-34.58109014722041,-25.41221439608565,47.977009226722004,-30.10500702824503,16.69104989437668,9.37266758786548,192.056,0.6519860999137279,7
17.31796290861743,-39.50413104704186,-24.764620690204403,49.96658199344674,-34.19502553002518,18.510481669809337,12.668750695397947,192.06,0.6559860999137186,7
19.534777796929117,-48.28541533152267,-22.23337090659033,53.00189153764923,-41.81521195380579,22.228553569359832,17.568775287980596,192.064,0.6599860999137093,7
22.467679189186235,-57.507771664813376,-19.0976209147029,55.29909814173257,-49.65454579449462,26.549699246801797,21.943461796290293,192.068,0.6639860999137284,7
25.077144538390762,-62.75429874859481,-17.767255611837985,55.698427068135345,-53.59050839427367,29.233986137113707,24.10250501106665,192.072,0.667986099913719,7
26.29035090102994,-62.217497024384656,-19.568175489703513,54.59338365012427,-52.0832573905862,28.953096235670007,24.03209911785013,192.076,0.6719860999137097,7
25.7598335120709,-57.99882693484532,-23.499936909962766,53.52563725186411,-47.269176388402954,26.308636270770435,23.17383319850559,192.08,0.6759860999137288,7
24.054577012730263,-54.14845222939819,-27.081963660441247,53.85313779738587,-42.99603603705731,23.226763101217486,23.091974015563135,192.084,0.6799860999137195,7
22.2381342877382,-53.46144739353078,-28.398998933680556,55.69573646459175,-41.82364193583348,21.446787252985562,24.303430257729328,192.088,0.6839860999137102,7
21.227028940382517,-55.90448429439361,-27.394814894064726,58.03405562264878,-43.674062913603606,21.496254195631554,26.216023343399097,192.092,0.6879860999137293,7
21.367720652391423,-59.66746751307132,-25.351888842281078,59.7359910287946,-46.91629661739861,22.856881042938998,27.975060248626022,192.096,0.69198609991372,7
22.41003713316703,-63.29132439898949,-23.345405671136792,60.478422105813955,-50.30648830083927,24.816837060456002,29.237922071528565,192.1,0.6959860999137106,7
23.781760789160927,-66.64664862250375,-21.355710826347103,60.7550941478996,-53.737614409525435,27.02122300357015,30.18189591774559,192.104,0.6999860999137297,7
24.959587465539983,-70.15120989892831,-18.823660837443327,61.124381019486286,-57.406322806405726,29.327002119400234,30.97022293835087,192.108,0.7039860999137204,7
25.752153610867722,-73.58167028353796,-15.802460526604271,61.56522640248724,-60.80401709237929,31.43834494019627,31.432422948970295,192.112,0.7079860999137111,7
26.368080892270346,-76.05377732576763,-13.272885944549847,61.596081525676894,-62.93954403707037,32.95483009923491,31.34721479020571,192.116,0.7119860999137302,7
27.22542549210169,-77.16158757689605,-12.222343529569386,60.95460511242939,-63.55482078870653,33.81877474103771,30.939946549603164,192.12,0.7159860999137209,7
28.59880031206179,-77.79034088353974,-12.541869547232848,60.050438162744356,-63.774790468402955,34.53805927800928,30.919703146360117,192.124,0.7199860999137115,7
30.340277495182367,-79.44081547919171,-13.040175525980686,59.677722316266824,-65.18633308580642,35.75104783872406,31.898276440805567,192.128,0.7239860999137022,7
31.907450982278185,-82.64473920593373,-12.639594824816534,60.28332652211392,-68.16765910804543,37.49548154831524,33.76573408608835,192.132,0.7279860999137213,7
32.72126719898541,-86.22215475186144,-11.47666483805309,61.56329385208621,-71.31299679019683,39.00861700525961,35.71863832378011,192.136,0.731986099913712,7
32.597635579297474,-88.35702567918113,-10.680379067860303,62.81097893875139,-72.77349767739962,39.41513765524627,36.98715025114591,192.14,0.7359860999137027,7
31.90302792840644,-88.51639931693542,-11.022232924893833,63.648057746657074,-72.27119531749814,38.69442533266927,37.56431655159457,192.144,0.7399860999137218,7
31.29155059101357,-88.21375853727977,-11.890712026085163,64.37110003307879,-71.66244166877311,37.90873176619728,38.19552984184841,192.148,0.7439860999137125,7
31.227207339539326,-89.68574631112772,-11.754433743317394,65.55199379174702,-73.2779545003284,38.33398060756119,39.604952815925984,192.152,0.7479860999137031,7
31.674244173658412,-93.66906616245296,-9.714515615581352,67.30868392874486,-77.54105150941992,40.24684614709482,41.694859037956114,192.156,0.7519860999137222,7
32.189636259861516,-98.45155166890113,-6.559683038029689,69.00670985445213,-82.22013465365832,42.54250248131219,43.49252076496334,192.16,0.7559860999137129,7
32.31311376783569,-101.19003932026413,-4.19607884968283,69.71889950209925,-84.16875568005052,43.61300191163111,43.90985866843142,192.164,0.7599860999137036,7
31.923727514686856,-100.3128034502359,-3.9630169829967645,69.01597308409397,-82.01192763840125,42.717270320064095,42.63077715278897,192.168,0.7639860999137227,7
31.299322210863913,-96.81644655752488,-5.465281910236369,67.34590172413431,-77.32664773633721,40.60359848186164,40.3595537872386,192.172,0.7679860999137134,7
30.884150436008188,-93.36894619985846,-7.013062086982679,65.67291885302198,-73.31023381940143,38.859149822913494,38.27602299429892,192.176,0.771986099913704,7
30.987124805020276,-92.17701501449937,-7.157180978337599,64.74427400734636,-72.25999959209514,38.638119890675775,37.22467688188966,192.18,0.7759860999137231,7
31.631005981282996,-93.56207356385342,-5.800219592908822,64.6484668194533,-74.13329187525534,39.91598999339355,37.300122237887706,192.184,0.7799860999137138,7
32.601982182538215,-96.29250916881429,-3.924973648251202,64.98459568073866,-77.22697460557997,41.81146818063512,38.04641137873344,192.188,0.7839860999137045,7
33.59328864078294,-99.00026432559945,-2.430918374485808,65.3746921374235,-79.97656501726033,43.48534431508957,38.95442262404958,192.192,0.7879860999137236,7
34.32047591123766,-101.18724981626801,-1.371851357495306,65.7948542770567,-82.04316098273267,44.69407562766981,39.79285634053183,192.196,0.7919860999137143,7
34.57575758008184,-103.03609646189128,-0.29055853766039264,66.45996726854032,-83.86785731209099,45.58434538050923,40.57444208251126,192.2,0.795986099913705,7
34.261258240946816,-104.5509689787892,0.8998831255999941,67.44811900640813,-85.50382588943359,46.14198585250089,41.303548642766906,192.204,0.799986099913724,7
33.4252528692685,-105.10236325284137,1.570934606135528,68.4559355673463,-86.1135764064927,45.98904151123864,41.7747751053451,192.208,0.8039860999137147,7
32.265487217778784,-103.83854665794857,0.9686429743900107,68.90667636838504,-84.62722881065888,44.74247717831995,41.58249172973366,192.212,0.8079860999137054,7
31.051448430523184,-100.46615477914001,-0.9370894909085775,68.3162526530836,-80.79320968466459,42.49557851650928,40.33317435459711,192.216,0.8119860999137245,7
29.98343610518795,-95.6035977271003,-3.300709980271117,66.64463203193424,-75.53169578649397,39.86398097724728,37.9439543794959,192.22,0.8159860999137152,7
29.085066078654137,-90.44024829668652,-5.128187247091965,64.40465015530104,-70.31090753756679,37.53307533666208,34.85655151072803,192.224,0.8199860999137059,7
28.22597600056435,-86.10257274840944,-6.118372321985022,62.46061497846263,-66.23208460739444,35.778864863199566,31.987573835562348,192.228,0.823986099913725,7
27.273757026767356,-83.2554283802738,-6.757774083613835,61.60817953415363,-63.64603489676092,34.43808822236981,30.33921257735773,192.232,0.8279860999137156,7
26.257574960674912,-82.07296050688866,-7.625956896346492,62.143097957391745,-62.43725522984028,33.30421350223153,30.43128621277729,192.236,0.8319860999137063,7
25.39806519022331,-82.34479668599525,-8.692590973154298,63.669254411080544,-62.43844078954086,32.479100014985455,31.929408832401155,192.24,0.8359860999137254,7
24.955600425781505,-83.5144705273388,-9.350478845758524,65.2998562018941,-63.46098029675523,32.28162103143691,33.788852010740044,192.244,0.8399860999137161,7
25.000971565868934,-84.71765385654156,-9.114796756912313,66.1612389343991,-64.99942351115556,32.80597441466019,34.86368920968121,192.248,0.8439860999137068,7
25.296200995833786,-85.00354898570703,-8.216218311880889,65.8706508550335,-66.10163286829783,33.611821192705996,34.54272712231242,192.252,0.8479860999137259,7
25.41332727075728,-83.7565627348919,-7.445533416111674,64.65858181157566,-65.75405627404244,33.92666136183159,32.95758198088147,192.256,0.8519860999137165,7
25.04786381400997,-81.11201981857955,-7.393238441320502,63.09704740493421,-63.616912290621286,33.26161149347072,30.71564783810648,192.26,0.8559860999137072,7
24.31973861595757,-78.1137906355179,-7.840051012847905,61.728318939388544,-60.57353635756664,31.943819058661468,28.535501391924857,192.264,0.8599860999137263,7
23.82066010590935,-76.47261964849541,-7.898309623985299,60.92462980780033,-58.61394417773716,31.095958170710976,27.143625365797202,192.268,0.863986099913717,7
24.306468911295866,-77.9090318055162,-6.785267688322189,60.99497967433149,-59.945825426142406,31.994486277540833,27.344190056812597,192.272,0.8679860999137077,7
26.17496487315501,-83.20535508860087,-4.5489100999337415,62.23239718643285,-65.67015059051212,35.183801707608666,29.833252011850227,192.276,0.8719860999137268,7
29.060243911089795,-91.35031839330476,-2.1508990562489156,64.65701911336612,-74.70470993611963,39.91307107442166,34.57559328679574,192.28,0.8759860999137175,7
31.865192663416238,-99.42312641461847,-0.875906512719257,67.63935728924886,-83.73401773672401,44.30780660923784,40.2206941021588,192.284,0.8799860999137081,7
33.305518071327974,-103.72350027075088,-1.5345337483061803,69.90758200698733,-88.59301141516738,46.284429804714684,44.35351555119442,192.288,0.8839860999137272,7
32.6810841494097,-101.86337505865718,-3.991407049551013,70.21036874562252,-86.61155880878614,44.75440757185552,44.82048045010659,192.292,0.8879860999137179,7
30.370419817153834,-94.54101288843711,-7.254083263112351,68.24880573948433,-78.52248907492273,40.39093908198575,41.30742058784831,192.296,0.8919860999137086,7
27.662821709459777,-85.49870256292705,-10.00933661531298,65.06256609243587,-68.41452322954319,35.37651294543076,35.82066166045683,192.3,0.8959860999137277,7
25.97448183755455,-79.28322352123662,-11.29843301015206,62.388358831302206,-61.35774744223755,32.14739603416981,31.429167270599667,192.304,0.8999860999137184,7
25.953149120592226,-78.21032283064531,-10.996062937454584,61.398829850449395,-60.11467935143747,31.87709689110493,30.091989257390797,192.308,0.903986099913709,7
27.096990725525355,-80.82149161823698,-9.853491705681536,61.85189689254661,-63.30703513168323,33.73772532598592,31.295405511543837,192.312,0.9079860999137281,7
28.159835774052077,-83.10512158823609,-9.073726937446512,62.38486151387158,-66.50100772511162,35.5033704359103,32.63178852696025,192.316,0.9119860999137188,7
28.032486181391185,-81.52727724928134,-9.652177543165534,61.6905987464099,-65.43812348802723,35.08354690121277,31.81094645146023,192.32,0.9159860999137095,7
26.442076918110267,-75.42809084858698,-11.873940616723333,59.538920343363415,-58.9277442059022,31.86627128870373,28.382507121035125,192.324,0.9199860999137286,7
23.990527675618793,-66.98421174160819,-15.247186409303279,56.79280260899811,-49.26742768836225,26.93038117817608,23.785114376480728,192.328,0.9239860999137193,7
21.605010453425383,-59.1366439180584,-18.82726626312826,54.52942597750894,-40.185767327580976,22.121845668164337,19.89339540966899,192.332,0.92798609991371,7
19.916726513881564,-53.56144518499532,-21.63390748597184,53.17428298397884,-34.28482096850404,18.858725299596554,17.530438842014252,192.336,0.931986099913729,7
19.044329887143267,-50.367156416748706,-22.918640827811707,52.43765219363619,-32.03622750376476,17.579166430089913,16.260876237455808,192.34,0.9359860999137197,7
18.815202278215114,-49.258311896715675,-22.30444061476734,51.97328335453509,-32.648486700968036,18.009898281380842,15.412855298319997,192.344,0.9399860999137104,7
19.063197047608334,-50.461694464181285,-19.949663214736393,51.95804320499825,-35.38222696341624,19.685392937391903,15.086951452335455,192.348,0.9439860999137295,7
19.669615869325394,-54.233332233688245,-16.70031708599326,52.93198840273423,-39.82797034531067,22.113557343052904,16.046458049879597,192.352,0.9479860999137202,7
20.389935840225473,-59.603481873473,-13.933054397990476,55.06260104581599,-45.152087250575,24.59821705598504,18.637869580012016,192.356,0.9519860999137109,7
20.796242500062768,-64.10935487420858,-12.88359693268228,57.64224641595141,-49.635721891793615,26.238003601933062,21.952181180737266,192.36,0.95598609991373,7
20.53520617231111,-65.33436587591449,-13.768656594587446,59.43294124762692,-51.515483088894264,26.419337274582517,24.231020864875706,192.364,0.9599860999137206,7
19.692134512221173,-63.033408030576865,-15.447120976106785,59.633191147313426,-50.53988241221192,25.42864200383859,24.266443755522367,192.368,0.9639860999137113,7
18.831963670485234,-59.6712375833066,-16.135364271630483,58.59365046963626,-48.56691064672676,24.447003709227886,22.500894652314464,192.372,0.9679860999137304,7
18.54990012534097,-58.49796897243165,-14.811783388763574,57.589263382049914,-48.239410411840616,24.670011108173515,20.739988157471444,192.376,0.9719860999137211,7
18.880130967261373,-60.66849964171818,-12.190063409485564,57.79406350953861,-50.671445866310236,26.204157154250588,20.651657286463422,192.38,0.9759860999137118,7
